times (s) 	 Voltage (V) 
0.000000 	 4.426447 
0.001000 	 4.428728 
0.002000 	 4.431986 
0.003000 	 4.434267 
0.004000 	 4.436548 
0.005000 	 4.437525 
0.006000 	 4.442087 
0.007000 	 4.445019 
0.008000 	 4.447300 
0.009000 	 4.448278 
0.010000 	 4.451536 
0.011000 	 4.454794 
0.012000 	 4.455446 
0.013000 	 4.456749 
0.014000 	 4.460985 
0.015000 	 4.462288 
0.016000 	 4.463917 
0.017000 	 4.465220 
0.018000 	 4.467827 
0.019000 	 4.468153 
0.020000 	 4.470433 
0.021000 	 4.471411 
0.022000 	 4.472388 
0.023000 	 4.474995 
0.024000 	 4.474669 
0.025000 	 4.476298 
0.026000 	 4.477276 
0.027000 	 4.478253 
0.028000 	 4.480860 
0.029000 	 4.479882 
0.030000 	 4.480208 
0.031000 	 4.482489 
0.032000 	 4.482489 
0.033000 	 4.483466 
0.034000 	 4.482489 
0.035000 	 4.484118 
0.036000 	 4.484118 
0.037000 	 4.484118 
0.038000 	 4.484118 
0.039000 	 4.483792 
0.040000 	 4.484770 
0.041000 	 4.483792 
0.042000 	 4.483792 
0.043000 	 4.483140 
0.044000 	 4.483792 
0.045000 	 4.482163 
0.046000 	 4.481837 
0.047000 	 4.481186 
0.048000 	 4.481511 
0.049000 	 4.480534 
0.050000 	 4.478579 
0.051000 	 4.477927 
0.052000 	 4.476624 
0.053000 	 4.475321 
0.054000 	 4.474669 
0.055000 	 4.473366 
0.056000 	 4.471411 
0.057000 	 4.470433 
0.058000 	 4.469130 
0.059000 	 4.468153 
0.060000 	 4.465872 
0.061000 	 4.464243 
0.062000 	 4.462614 
0.063000 	 4.460333 
0.064000 	 4.459030 
0.065000 	 4.456423 
0.066000 	 4.455120 
0.067000 	 4.452513 
0.068000 	 4.449907 
0.069000 	 4.445997 
0.070000 	 4.445671 
0.071000 	 4.442739 
0.072000 	 4.440132 
0.073000 	 4.436874 
0.074000 	 4.435570 
0.075000 	 4.432638 
0.076000 	 4.429380 
0.077000 	 4.424818 
0.078000 	 4.422863 
0.079000 	 4.420583 
0.080000 	 4.417324 
0.081000 	 4.412763 
0.082000 	 4.410808 
0.083000 	 4.405595 
0.084000 	 4.403640 
0.085000 	 4.400056 
0.086000 	 4.395168 
0.087000 	 4.391910 
0.088000 	 4.388978 
0.089000 	 4.384091 
0.090000 	 4.379529 
0.091000 	 4.377248 
0.092000 	 4.372687 
0.093000 	 4.368451 
0.094000 	 4.363238 
0.095000 	 4.359980 
0.096000 	 4.355744 
0.097000 	 4.349879 
0.098000 	 4.345969 
0.099000 	 4.342385 
0.100000 	 4.337824 
0.101000 	 4.331959 
0.102000 	 4.327072 
0.103000 	 4.322510 
0.104000 	 4.318274 
0.105000 	 4.312735 
0.106000 	 4.307848 
0.107000 	 4.303287 
0.108000 	 4.297748 
0.109000 	 4.290580 
0.110000 	 4.286670 
0.111000 	 4.280153 
0.112000 	 4.275918 
0.113000 	 4.269727 
0.114000 	 4.264188 
0.115000 	 4.258649 
0.116000 	 4.252133 
0.117000 	 4.246268 
0.118000 	 4.241055 
0.119000 	 4.234212 
0.120000 	 4.227696 
0.121000 	 4.222157 
0.122000 	 4.215966 
0.123000 	 4.209776 
0.124000 	 4.203259 
0.125000 	 4.196743 
0.126000 	 4.189901 
0.127000 	 4.184036 
0.128000 	 4.176542 
0.129000 	 4.170351 
0.130000 	 4.163509 
0.131000 	 4.156667 
0.132000 	 4.149173 
0.133000 	 4.141353 
0.134000 	 4.135814 
0.135000 	 4.129623 
0.136000 	 4.120826 
0.137000 	 4.113658 
0.138000 	 4.106490 
0.139000 	 4.099974 
0.140000 	 4.091828 
0.141000 	 4.084334 
0.142000 	 4.076840 
0.143000 	 4.069672 
0.144000 	 4.061527 
0.145000 	 4.054033 
0.146000 	 4.047190 
0.147000 	 4.037742 
0.148000 	 4.029922 
0.149000 	 4.021125 
0.150000 	 4.012979 
0.151000 	 4.005485 
0.152000 	 3.997665 
0.153000 	 3.989846 
0.154000 	 3.980723 
0.155000 	 3.973555 
0.156000 	 3.965083 
0.157000 	 3.955960 
0.158000 	 3.947163 
0.159000 	 3.939017 
0.160000 	 3.930220 
0.161000 	 3.920771 
0.162000 	 3.911648 
0.163000 	 3.903503 
0.164000 	 3.894706 
0.165000 	 3.886560 
0.166000 	 3.877437 
0.167000 	 3.868314 
0.168000 	 3.859517 
0.169000 	 3.849742 
0.170000 	 3.840619 
0.171000 	 3.831496 
0.172000 	 3.822699 
0.173000 	 3.811947 
0.174000 	 3.803150 
0.175000 	 3.794027 
0.176000 	 3.784252 
0.177000 	 3.775129 
0.178000 	 3.765028 
0.179000 	 3.754928 
0.180000 	 3.744502 
0.181000 	 3.734727 
0.182000 	 3.725604 
0.183000 	 3.715503 
0.184000 	 3.706380 
0.185000 	 3.695954 
0.186000 	 3.686179 
0.187000 	 3.677382 
0.188000 	 3.665653 
0.189000 	 3.655878 
0.190000 	 3.646103 
0.191000 	 3.635677 
0.192000 	 3.625251 
0.193000 	 3.614824 
0.194000 	 3.605050 
0.195000 	 3.593646 
0.196000 	 3.583871 
0.197000 	 3.571164 
0.198000 	 3.562367 
0.199000 	 3.551615 
0.200000 	 3.540537 
0.201000 	 3.530111 
0.202000 	 3.520336 
0.203000 	 3.508932 
0.204000 	 3.498832 
0.205000 	 3.486125 
0.206000 	 3.476350 
0.207000 	 3.465272 
0.208000 	 3.454194 
0.209000 	 3.442465 
0.210000 	 3.433016 
0.211000 	 3.420960 
0.212000 	 3.409882 
0.213000 	 3.398153 
0.214000 	 3.387726 
0.215000 	 3.376974 
0.216000 	 3.365245 
0.217000 	 3.354493 
0.218000 	 3.342111 
0.219000 	 3.331033 
0.220000 	 3.319955 
0.221000 	 3.308552 
0.222000 	 3.296822 
0.223000 	 3.286070 
0.224000 	 3.274014 
0.225000 	 3.262285 
0.226000 	 3.250555 
0.227000 	 3.239477 
0.228000 	 3.227422 
0.229000 	 3.215041 
0.230000 	 3.204289 
0.231000 	 3.192559 
0.232000 	 3.180504 
0.233000 	 3.168122 
0.234000 	 3.157044 
0.235000 	 3.145315 
0.236000 	 3.133585 
0.237000 	 3.120878 
0.238000 	 3.109148 
0.239000 	 3.098070 
0.240000 	 3.085363 
0.241000 	 3.072656 
0.242000 	 3.060601 
0.243000 	 3.049197 
0.244000 	 3.036164 
0.245000 	 3.025086 
0.246000 	 3.013357 
0.247000 	 3.001301 
0.248000 	 2.988594 
0.249000 	 2.977190 
0.250000 	 2.963832 
0.251000 	 2.952428 
0.252000 	 2.940047 
0.253000 	 2.927991 
0.254000 	 2.914307 
0.255000 	 2.902903 
0.256000 	 2.890848 
0.257000 	 2.878466 
0.258000 	 2.866737 
0.259000 	 2.853704 
0.260000 	 2.841323 
0.261000 	 2.828290 
0.262000 	 2.817212 
0.263000 	 2.804505 
0.264000 	 2.791798 
0.265000 	 2.779091 
0.266000 	 2.768013 
0.267000 	 2.754002 
0.268000 	 2.742599 
0.269000 	 2.729891 
0.270000 	 2.716533 
0.271000 	 2.703826 
0.272000 	 2.691770 
0.273000 	 2.680366 
0.274000 	 2.667008 
0.275000 	 2.654301 
0.276000 	 2.641594 
0.277000 	 2.630190 
0.278000 	 2.617809 
0.279000 	 2.604450 
0.280000 	 2.592069 
0.281000 	 2.579036 
0.282000 	 2.567306 
0.283000 	 2.554599 
0.284000 	 2.541240 
0.285000 	 2.528859 
0.286000 	 2.517130 
0.287000 	 2.504748 
0.288000 	 2.491064 
0.289000 	 2.479008 
0.290000 	 2.466953 
0.291000 	 2.453920 
0.292000 	 2.440561 
0.293000 	 2.428180 
0.294000 	 2.415799 
0.295000 	 2.403743 
0.296000 	 2.390385 
0.297000 	 2.377678 
0.298000 	 2.365296 
0.299000 	 2.352589 
0.300000 	 2.340860 
0.301000 	 2.327827 
0.302000 	 2.315120 
0.303000 	 2.303716 
0.304000 	 2.290357 
0.305000 	 2.277976 
0.306000 	 2.265595 
0.307000 	 2.252236 
0.308000 	 2.241158 
0.309000 	 2.228451 
0.310000 	 2.215418 
0.311000 	 2.202385 
0.312000 	 2.190982 
0.313000 	 2.177623 
0.314000 	 2.165893 
0.315000 	 2.153838 
0.316000 	 2.141782 
0.317000 	 2.128750 
0.318000 	 2.116368 
0.319000 	 2.103987 
0.320000 	 2.092583 
0.321000 	 2.079225 
0.322000 	 2.067169 
0.323000 	 2.055114 
0.324000 	 2.042407 
0.325000 	 2.030677 
0.326000 	 2.017644 
0.327000 	 2.005263 
0.328000 	 1.994185 
0.329000 	 1.981804 
0.330000 	 1.968771 
0.331000 	 1.957041 
0.332000 	 1.944660 
0.333000 	 1.933908 
0.334000 	 1.920875 
0.335000 	 1.908820 
0.336000 	 1.896764 
0.337000 	 1.885686 
0.338000 	 1.872653 
0.339000 	 1.860924 
0.340000 	 1.848868 
0.341000 	 1.837465 
0.342000 	 1.825735 
0.343000 	 1.813028 
0.344000 	 1.801624 
0.345000 	 1.789569 
0.346000 	 1.777513 
0.347000 	 1.765458 
0.348000 	 1.753402 
0.349000 	 1.742650 
0.350000 	 1.731247 
0.351000 	 1.719191 
0.352000 	 1.707462 
0.353000 	 1.696384 
0.354000 	 1.684002 
0.355000 	 1.673902 
0.356000 	 1.660543 
0.357000 	 1.650117 
0.358000 	 1.639039 
0.359000 	 1.627961 
0.360000 	 1.615906 
0.361000 	 1.605479 
0.362000 	 1.594401 
0.363000 	 1.582672 
0.364000 	 1.571268 
0.365000 	 1.559864 
0.366000 	 1.548786 
0.367000 	 1.537057 
0.368000 	 1.525979 
0.369000 	 1.515552 
0.370000 	 1.503823 
0.371000 	 1.493722 
0.372000 	 1.483622 
0.373000 	 1.471566 
0.374000 	 1.461466 
0.375000 	 1.449736 
0.376000 	 1.439636 
0.377000 	 1.428884 
0.378000 	 1.418457 
0.379000 	 1.407379 
0.380000 	 1.397279 
0.381000 	 1.386527 
0.382000 	 1.376426 
0.383000 	 1.366000 
0.384000 	 1.355248 
0.385000 	 1.345147 
0.386000 	 1.334721 
0.387000 	 1.324295 
0.388000 	 1.314520 
0.389000 	 1.304420 
0.390000 	 1.292690 
0.391000 	 1.283241 
0.392000 	 1.274118 
0.393000 	 1.264669 
0.394000 	 1.253917 
0.395000 	 1.243165 
0.396000 	 1.233716 
0.397000 	 1.224267 
0.398000 	 1.213841 
0.399000 	 1.205044 
0.400000 	 1.194943 
0.401000 	 1.185494 
0.402000 	 1.175720 
0.403000 	 1.165945 
0.404000 	 1.156496 
0.405000 	 1.147699 
0.406000 	 1.137924 
0.407000 	 1.129127 
0.408000 	 1.120004 
0.409000 	 1.110881 
0.410000 	 1.101432 
0.411000 	 1.092309 
0.412000 	 1.083838 
0.413000 	 1.074715 
0.414000 	 1.065592 
0.415000 	 1.056469 
0.416000 	 1.046694 
0.417000 	 1.038874 
0.418000 	 1.030077 
0.419000 	 1.022583 
0.420000 	 1.012809 
0.421000 	 1.004663 
0.422000 	 0.996192 
0.423000 	 0.988372 
0.424000 	 0.979575 
0.425000 	 0.971755 
0.426000 	 0.963610 
0.427000 	 0.954812 
0.428000 	 0.946667 
0.429000 	 0.939499 
0.430000 	 0.931027 
0.431000 	 0.923208 
0.432000 	 0.915062 
0.433000 	 0.907242 
0.434000 	 0.900400 
0.435000 	 0.892255 
0.436000 	 0.886716 
0.437000 	 0.878244 
0.438000 	 0.869773 
0.439000 	 0.862279 
0.440000 	 0.855762 
0.441000 	 0.846965 
0.442000 	 0.840449 
0.443000 	 0.832955 
0.444000 	 0.826764 
0.445000 	 0.818945 
0.446000 	 0.812102 
0.447000 	 0.805260 
0.448000 	 0.799395 
0.449000 	 0.791575 
0.450000 	 0.784733 
0.451000 	 0.778868 
0.452000 	 0.772352 
0.453000 	 0.767139 
0.454000 	 0.759645 
0.455000 	 0.752803 
0.456000 	 0.746286 
0.457000 	 0.741073 
0.458000 	 0.734231 
0.459000 	 0.728366 
0.460000 	 0.722501 
0.461000 	 0.716311 
0.462000 	 0.710446 
0.463000 	 0.704255 
0.464000 	 0.698716 
0.465000 	 0.693503 
0.466000 	 0.686987 
0.467000 	 0.682425 
0.468000 	 0.676886 
0.469000 	 0.671347 
0.470000 	 0.665808 
0.471000 	 0.661247 
0.472000 	 0.656359 
0.473000 	 0.651472 
0.474000 	 0.645933 
0.475000 	 0.641046 
0.476000 	 0.636484 
0.477000 	 0.631271 
0.478000 	 0.626709 
0.479000 	 0.621496 
0.480000 	 0.617586 
0.481000 	 0.613025 
0.482000 	 0.608789 
0.483000 	 0.604879 
0.484000 	 0.599992 
0.485000 	 0.596082 
0.486000 	 0.592172 
0.487000 	 0.587611 
0.488000 	 0.583049 
0.489000 	 0.579791 
0.490000 	 0.576207 
0.491000 	 0.572623 
0.492000 	 0.568061 
0.493000 	 0.564477 
0.494000 	 0.560893 
0.495000 	 0.557961 
0.496000 	 0.554377 
0.497000 	 0.551119 
0.498000 	 0.547860 
0.499000 	 0.544602 
0.500000 	 0.544276 
0.501000 	 0.539063 
0.502000 	 0.535479 
0.503000 	 0.533198 
0.504000 	 0.531569 
0.505000 	 0.527660 
0.506000 	 0.525053 
0.507000 	 0.522446 
0.508000 	 0.520491 
0.509000 	 0.517233 
0.510000 	 0.515604 
0.511000 	 0.514301 
0.512000 	 0.511694 
0.513000 	 0.508436 
0.514000 	 0.507459 
0.515000 	 0.504852 
0.516000 	 0.503549 
0.517000 	 0.502571 
0.518000 	 0.498987 
0.519000 	 0.497684 
0.520000 	 0.498010 
0.521000 	 0.496381 
0.522000 	 0.493448 
0.523000 	 0.492471 
0.524000 	 0.492471 
0.525000 	 0.490842 
0.526000 	 0.488235 
0.527000 	 0.487909 
0.528000 	 0.488235 
0.529000 	 0.486932 
0.530000 	 0.485954 
0.531000 	 0.485628 
0.532000 	 0.484651 
0.533000 	 0.484651 
0.534000 	 0.483674 
0.535000 	 0.482370 
0.536000 	 0.483022 
0.537000 	 0.483999 
0.538000 	 0.483022 
0.539000 	 0.482044 
0.540000 	 0.483022 
0.541000 	 0.482696 
0.542000 	 0.482696 
0.543000 	 0.483348 
0.544000 	 0.483348 
0.545000 	 0.484325 
0.546000 	 0.485628 
0.547000 	 0.486606 
0.548000 	 0.486280 
0.549000 	 0.487258 
0.550000 	 0.487258 
0.551000 	 0.490190 
0.552000 	 0.489864 
0.553000 	 0.491167 
0.554000 	 0.491819 
0.555000 	 0.494100 
0.556000 	 0.493774 
0.557000 	 0.497032 
0.558000 	 0.497684 
0.559000 	 0.499639 
0.560000 	 0.501268 
0.561000 	 0.502245 
0.562000 	 0.504852 
0.563000 	 0.506481 
0.564000 	 0.510391 
0.565000 	 0.511043 
0.566000 	 0.512672 
0.567000 	 0.515278 
0.568000 	 0.518211 
0.569000 	 0.519188 
0.570000 	 0.522121 
0.571000 	 0.524727 
0.572000 	 0.527334 
0.573000 	 0.529940 
0.574000 	 0.531895 
0.575000 	 0.535153 
0.576000 	 0.539389 
0.577000 	 0.541018 
0.578000 	 0.544276 
0.579000 	 0.546883 
0.580000 	 0.550793 
0.581000 	 0.554703 
0.582000 	 0.556332 
0.583000 	 0.560568 
0.584000 	 0.563826 
0.585000 	 0.568387 
0.586000 	 0.570016 
0.587000 	 0.575230 
0.588000 	 0.578814 
0.589000 	 0.583049 
0.590000 	 0.586633 
0.591000 	 0.590217 
0.592000 	 0.595105 
0.593000 	 0.598689 
0.594000 	 0.602924 
0.595000 	 0.606834 
0.596000 	 0.612047 
0.597000 	 0.617261 
0.598000 	 0.621496 
0.599000 	 0.626058 
0.600000 	 0.630293 
0.601000 	 0.635507 
0.602000 	 0.639417 
0.603000 	 0.644630 
0.604000 	 0.648865 
0.605000 	 0.654404 
0.606000 	 0.659943 
0.607000 	 0.664505 
0.608000 	 0.670370 
0.609000 	 0.675257 
0.610000 	 0.680796 
0.611000 	 0.687312 
0.612000 	 0.691874 
0.613000 	 0.698065 
0.614000 	 0.703929 
0.615000 	 0.710120 
0.616000 	 0.714681 
0.617000 	 0.720872 
0.618000 	 0.727388 
0.619000 	 0.733579 
0.620000 	 0.738792 
0.621000 	 0.744983 
0.622000 	 0.751825 
0.623000 	 0.758993 
0.624000 	 0.764532 
0.625000 	 0.770071 
0.626000 	 0.776913 
0.627000 	 0.783756 
0.628000 	 0.791575 
0.629000 	 0.797766 
0.630000 	 0.804608 
0.631000 	 0.811451 
0.632000 	 0.819270 
0.633000 	 0.824483 
0.634000 	 0.831977 
0.635000 	 0.839797 
0.636000 	 0.846314 
0.637000 	 0.853807 
0.638000 	 0.860650 
0.639000 	 0.868469 
0.640000 	 0.876941 
0.641000 	 0.883783 
0.642000 	 0.891603 
0.643000 	 0.898445 
0.644000 	 0.906917 
0.645000 	 0.914410 
0.646000 	 0.922230 
0.647000 	 0.930376 
0.648000 	 0.938195 
0.649000 	 0.946341 
0.650000 	 0.952532 
0.651000 	 0.961329 
0.652000 	 0.970126 
0.653000 	 0.978923 
0.654000 	 0.986417 
0.655000 	 0.994563 
0.656000 	 1.003686 
0.657000 	 1.011831 
0.658000 	 1.020303 
0.659000 	 1.028774 
0.660000 	 1.036594 
0.661000 	 1.046368 
0.662000 	 1.056143 
0.663000 	 1.064614 
0.664000 	 1.072760 
0.665000 	 1.081883 
0.666000 	 1.091006 
0.667000 	 1.099152 
0.668000 	 1.107949 
0.669000 	 1.118375 
0.670000 	 1.127172 
0.671000 	 1.136621 
0.672000 	 1.145744 
0.673000 	 1.155193 
0.674000 	 1.163664 
0.675000 	 1.175394 
0.676000 	 1.183540 
0.677000 	 1.192988 
0.678000 	 1.203089 
0.679000 	 1.213841 
0.680000 	 1.221661 
0.681000 	 1.232413 
0.682000 	 1.241536 
0.683000 	 1.251962 
0.684000 	 1.261737 
0.685000 	 1.270534 
0.686000 	 1.282264 
0.687000 	 1.291387 
0.688000 	 1.301487 
0.689000 	 1.311262 
0.690000 	 1.322340 
0.691000 	 1.332766 
0.692000 	 1.343844 
0.693000 	 1.352967 
0.694000 	 1.363068 
0.695000 	 1.373820 
0.696000 	 1.385223 
0.697000 	 1.394998 
0.698000 	 1.405750 
0.699000 	 1.416502 
0.700000 	 1.427580 
0.701000 	 1.436703 
0.702000 	 1.447781 
0.703000 	 1.460163 
0.704000 	 1.469937 
0.705000 	 1.480689 
0.706000 	 1.491441 
0.707000 	 1.502519 
0.708000 	 1.513923 
0.709000 	 1.524675 
0.710000 	 1.535102 
0.711000 	 1.546505 
0.712000 	 1.558887 
0.713000 	 1.568010 
0.714000 	 1.579088 
0.715000 	 1.591795 
0.716000 	 1.602547 
0.717000 	 1.614276 
0.718000 	 1.625029 
0.719000 	 1.636758 
0.720000 	 1.647510 
0.721000 	 1.658588 
0.722000 	 1.671295 
0.723000 	 1.682047 
0.724000 	 1.693777 
0.725000 	 1.706484 
0.726000 	 1.717562 
0.727000 	 1.728966 
0.728000 	 1.740695 
0.729000 	 1.752425 
0.730000 	 1.763829 
0.731000 	 1.775233 
0.732000 	 1.787614 
0.733000 	 1.799018 
0.734000 	 1.810421 
0.735000 	 1.822477 
0.736000 	 1.834858 
0.737000 	 1.847565 
0.738000 	 1.858317 
0.739000 	 1.871024 
0.740000 	 1.881451 
0.741000 	 1.894158 
0.742000 	 1.906213 
0.743000 	 1.918920 
0.744000 	 1.929998 
0.745000 	 1.942379 
0.746000 	 1.954109 
0.747000 	 1.966816 
0.748000 	 1.978871 
0.749000 	 1.991253 
0.750000 	 2.003634 
0.751000 	 2.015689 
0.752000 	 2.027419 
0.753000 	 2.040452 
0.754000 	 2.051856 
0.755000 	 2.064888 
0.756000 	 2.076618 
0.757000 	 2.089651 
0.758000 	 2.102032 
0.759000 	 2.113762 
0.760000 	 2.125817 
0.761000 	 2.138524 
0.762000 	 2.150905 
0.763000 	 2.162961 
0.764000 	 2.174691 
0.765000 	 2.188701 
0.766000 	 2.200105 
0.767000 	 2.213138 
0.768000 	 2.225845 
0.769000 	 2.237900 
0.770000 	 2.249955 
0.771000 	 2.262988 
0.772000 	 2.274718 
0.773000 	 2.288077 
0.774000 	 2.300784 
0.775000 	 2.313817 
0.776000 	 2.326524 
0.777000 	 2.338579 
0.778000 	 2.349983 
0.779000 	 2.363016 
0.780000 	 2.376374 
0.781000 	 2.388756 
0.782000 	 2.400811 
0.783000 	 2.413518 
0.784000 	 2.425574 
0.785000 	 2.438606 
0.786000 	 2.450988 
0.787000 	 2.463695 
0.788000 	 2.476402 
0.789000 	 2.489109 
0.790000 	 2.502142 
0.791000 	 2.514523 
0.792000 	 2.527230 
0.793000 	 2.539937 
0.794000 	 2.552318 
0.795000 	 2.563722 
0.796000 	 2.577407 
0.797000 	 2.589788 
0.798000 	 2.602169 
0.799000 	 2.613899 
0.800000 	 2.627583 
0.801000 	 2.639639 
0.802000 	 2.652997 
0.803000 	 2.663750 
0.804000 	 2.676457 
0.805000 	 2.690141 
0.806000 	 2.702522 
0.807000 	 2.714904 
0.808000 	 2.727285 
0.809000 	 2.739666 
0.810000 	 2.752047 
0.811000 	 2.765732 
0.812000 	 2.776810 
0.813000 	 2.789843 
0.814000 	 2.801247 
0.815000 	 2.814279 
0.816000 	 2.826335 
0.817000 	 2.839042 
0.818000 	 2.852075 
0.819000 	 2.863479 
0.820000 	 2.876186 
0.821000 	 2.888241 
0.822000 	 2.900296 
0.823000 	 2.913329 
0.824000 	 2.924407 
0.825000 	 2.938418 
0.826000 	 2.950147 
0.827000 	 2.962203 
0.828000 	 2.974258 
0.829000 	 2.986313 
0.830000 	 2.998369 
0.831000 	 3.011076 
0.832000 	 3.023131 
0.833000 	 3.035187 
0.834000 	 3.046916 
0.835000 	 3.059298 
0.836000 	 3.070701 
0.837000 	 3.083408 
0.838000 	 3.094812 
0.839000 	 3.107519 
0.840000 	 3.119575 
0.841000 	 3.130979 
0.842000 	 3.142056 
0.843000 	 3.155089 
0.844000 	 3.166167 
0.845000 	 3.178549 
0.846000 	 3.189627 
0.847000 	 3.201356 
0.848000 	 3.213737 
0.849000 	 3.225467 
0.850000 	 3.236871 
0.851000 	 3.248926 
0.852000 	 3.260004 
0.853000 	 3.271734 
0.854000 	 3.283137 
0.855000 	 3.294867 
0.856000 	 3.305945 
0.857000 	 3.317675 
0.858000 	 3.329078 
0.859000 	 3.339831 
0.860000 	 3.351560 
0.861000 	 3.363616 
0.862000 	 3.374694 
0.863000 	 3.386749 
0.864000 	 3.396849 
0.865000 	 3.407276 
0.866000 	 3.419005 
0.867000 	 3.429432 
0.868000 	 3.440835 
0.869000 	 3.452891 
0.870000 	 3.463643 
0.871000 	 3.474069 
0.872000 	 3.485799 
0.873000 	 3.495574 
0.874000 	 3.506000 
0.875000 	 3.517404 
0.876000 	 3.528156 
0.877000 	 3.537930 
0.878000 	 3.549008 
0.879000 	 3.559760 
0.880000 	 3.571164 
0.881000 	 3.580939 
0.882000 	 3.592017 
0.883000 	 3.602117 
0.884000 	 3.611892 
0.885000 	 3.623622 
0.886000 	 3.633070 
0.887000 	 3.642519 
0.888000 	 3.653271 
0.889000 	 3.664349 
0.890000 	 3.673147 
0.891000 	 3.684225 
0.892000 	 3.693673 
0.893000 	 3.703448 
0.894000 	 3.713874 
0.895000 	 3.723975 
0.896000 	 3.733098 
0.897000 	 3.743850 
0.898000 	 3.752321 
0.899000 	 3.761444 
0.900000 	 3.771871 
0.901000 	 3.781645 
0.902000 	 3.791420 
0.903000 	 3.800217 
0.904000 	 3.810644 
0.905000 	 3.819767 
0.906000 	 3.828890 
0.907000 	 3.838013 
0.908000 	 3.847136 
0.909000 	 3.856584 
0.910000 	 3.866685 
0.911000 	 3.874505 
0.912000 	 3.884605 
0.913000 	 3.892751 
0.914000 	 3.901222 
0.915000 	 3.910671 
0.916000 	 3.919794 
0.917000 	 3.928265 
0.918000 	 3.937063 
0.919000 	 3.945208 
0.920000 	 3.953679 
0.921000 	 3.963454 
0.922000 	 3.970622 
0.923000 	 3.979419 
0.924000 	 3.987565 
0.925000 	 3.996362 
0.926000 	 4.004834 
0.927000 	 4.012327 
0.928000 	 4.020799 
0.929000 	 4.027967 
0.930000 	 4.036112 
0.931000 	 4.042303 
0.932000 	 4.052404 
0.933000 	 4.059572 
0.934000 	 4.067391 
0.935000 	 4.074885 
0.936000 	 4.082705 
0.937000 	 4.090525 
0.938000 	 4.098345 
0.939000 	 4.104535 
0.940000 	 4.113658 
0.941000 	 4.120175 
0.942000 	 4.127343 
0.943000 	 4.133533 
0.944000 	 4.141027 
0.945000 	 4.148195 
0.946000 	 4.155363 
0.947000 	 4.161554 
0.948000 	 4.168070 
0.949000 	 4.175890 
0.950000 	 4.181755 
0.951000 	 4.188597 
0.952000 	 4.194788 
0.953000 	 4.201630 
0.954000 	 4.207169 
0.955000 	 4.214011 
0.956000 	 4.220202 
0.957000 	 4.227044 
0.958000 	 4.233561 
0.959000 	 4.239100 
0.960000 	 4.244313 
0.961000 	 4.251807 
0.962000 	 4.257672 
0.963000 	 4.262885 
0.964000 	 4.268098 
0.965000 	 4.274614 
0.966000 	 4.280479 
0.967000 	 4.284715 
0.968000 	 4.291557 
0.969000 	 4.295793 
0.970000 	 4.300680 
0.971000 	 4.306545 
0.972000 	 4.310455 
0.973000 	 4.317297 
0.974000 	 4.321533 
0.975000 	 4.327397 
0.976000 	 4.331307 
0.977000 	 4.337172 
0.978000 	 4.339779 
0.979000 	 4.345969 
0.980000 	 4.350205 
0.981000 	 4.355092 
0.982000 	 4.359002 
0.983000 	 4.362912 
0.984000 	 4.367148 
0.985000 	 4.372035 
0.986000 	 4.375945 
0.987000 	 4.380181 
0.988000 	 4.383765 
0.989000 	 4.387349 
0.990000 	 4.390933 
0.991000 	 4.395820 
0.992000 	 4.398753 
0.993000 	 4.402662 
0.994000 	 4.405921 
0.995000 	 4.407876 
0.996000 	 4.412111 
0.997000 	 4.415369 
0.998000 	 4.418954 
0.999000 	 4.421234 
1.000000 	 4.425796 
1.001000 	 4.429054 
1.002000 	 4.431335 
1.003000 	 4.433290 
1.004000 	 4.437525 
1.005000 	 4.440132 
1.006000 	 4.442739 
1.007000 	 4.443716 
1.008000 	 4.446323 
1.009000 	 4.449581 
1.010000 	 4.451862 
1.011000 	 4.454142 
1.012000 	 4.455771 
1.013000 	 4.459030 
1.014000 	 4.460007 
1.015000 	 4.461636 
1.016000 	 4.463265 
1.017000 	 4.466198 
1.018000 	 4.467827 
1.019000 	 4.468478 
1.020000 	 4.470108 
1.021000 	 4.472063 
1.022000 	 4.473692 
1.023000 	 4.474995 
1.024000 	 4.474995 
1.025000 	 4.477276 
1.026000 	 4.477927 
1.027000 	 4.478253 
1.028000 	 4.478905 
1.029000 	 4.480860 
1.030000 	 4.481837 
1.031000 	 4.481837 
1.032000 	 4.482489 
1.033000 	 4.483792 
1.034000 	 4.484118 
1.035000 	 4.484444 
1.036000 	 4.484118 
1.037000 	 4.484118 
1.038000 	 4.483792 
1.039000 	 4.484444 
1.040000 	 4.483140 
1.041000 	 4.484118 
1.042000 	 4.482489 
1.043000 	 4.484118 
1.044000 	 4.482815 
1.045000 	 4.482815 
1.046000 	 4.481511 
1.047000 	 4.481511 
1.048000 	 4.480208 
1.049000 	 4.479882 
1.050000 	 4.478579 
1.051000 	 4.478579 
1.052000 	 4.477927 
1.053000 	 4.475972 
1.054000 	 4.474017 
1.055000 	 4.474017 
1.056000 	 4.472388 
1.057000 	 4.470759 
1.058000 	 4.468478 
1.059000 	 4.466198 
1.060000 	 4.467175 
1.061000 	 4.464894 
1.062000 	 4.462288 
1.063000 	 4.460659 
1.064000 	 4.458704 
1.065000 	 4.457401 
1.066000 	 4.454794 
1.067000 	 4.450884 
1.068000 	 4.450558 
1.069000 	 4.448278 
1.070000 	 4.445019 
1.071000 	 4.441761 
1.072000 	 4.440784 
1.073000 	 4.436874 
1.074000 	 4.434919 
1.075000 	 4.431335 
1.076000 	 4.429054 
1.077000 	 4.426122 
1.078000 	 4.422212 
1.079000 	 4.419931 
1.080000 	 4.416999 
1.081000 	 4.414066 
1.082000 	 4.410808 
1.083000 	 4.406572 
1.084000 	 4.402988 
1.085000 	 4.400382 
1.086000 	 4.396472 
1.087000 	 4.392888 
1.088000 	 4.388000 
1.089000 	 4.384416 
1.090000 	 4.381158 
1.091000 	 4.376922 
1.092000 	 4.372035 
1.093000 	 4.367474 
1.094000 	 4.363564 
1.095000 	 4.359654 
1.096000 	 4.355418 
1.097000 	 4.350531 
1.098000 	 4.346621 
1.099000 	 4.341408 
1.100000 	 4.337172 
1.101000 	 4.331307 
1.102000 	 4.327723 
1.103000 	 4.322836 
1.104000 	 4.317623 
1.105000 	 4.312410 
1.106000 	 4.307197 
1.107000 	 4.302961 
1.108000 	 4.296119 
1.109000 	 4.291231 
1.110000 	 4.285366 
1.111000 	 4.280805 
1.112000 	 4.275592 
1.113000 	 4.269075 
1.114000 	 4.263862 
1.115000 	 4.258649 
1.116000 	 4.252458 
1.117000 	 4.246919 
1.118000 	 4.240729 
1.119000 	 4.234864 
1.120000 	 4.227696 
1.121000 	 4.222157 
1.122000 	 4.215640 
1.123000 	 4.208798 
1.124000 	 4.203911 
1.125000 	 4.196743 
1.126000 	 4.190226 
1.127000 	 4.183058 
1.128000 	 4.177193 
1.129000 	 4.170025 
1.130000 	 4.162206 
1.131000 	 4.156015 
1.132000 	 4.149499 
1.133000 	 4.142005 
1.134000 	 4.136466 
1.135000 	 4.127994 
1.136000 	 4.121152 
1.137000 	 4.114636 
1.138000 	 4.106816 
1.139000 	 4.099322 
1.140000 	 4.091828 
1.141000 	 4.084986 
1.142000 	 4.076840 
1.143000 	 4.069021 
1.144000 	 4.061852 
1.145000 	 4.054684 
1.146000 	 4.045887 
1.147000 	 4.037742 
1.148000 	 4.029596 
1.149000 	 4.022102 
1.150000 	 4.013957 
1.151000 	 4.005811 
1.152000 	 3.996362 
1.153000 	 3.989194 
1.154000 	 3.980723 
1.155000 	 3.972577 
1.156000 	 3.964106 
1.157000 	 3.954983 
1.158000 	 3.947489 
1.159000 	 3.938692 
1.160000 	 3.930220 
1.161000 	 3.920771 
1.162000 	 3.912300 
1.163000 	 3.903829 
1.164000 	 3.895031 
1.165000 	 3.885583 
1.166000 	 3.877763 
1.167000 	 3.867988 
1.168000 	 3.858865 
1.169000 	 3.850068 
1.170000 	 3.839316 
1.171000 	 3.831822 
1.172000 	 3.821722 
1.173000 	 3.811295 
1.174000 	 3.802498 
1.175000 	 3.794352 
1.176000 	 3.783274 
1.177000 	 3.774151 
1.178000 	 3.764377 
1.179000 	 3.754602 
1.180000 	 3.744827 
1.181000 	 3.735704 
1.182000 	 3.725278 
1.183000 	 3.715829 
1.184000 	 3.706706 
1.185000 	 3.696280 
1.186000 	 3.685202 
1.187000 	 3.675102 
1.188000 	 3.665979 
1.189000 	 3.654575 
1.190000 	 3.645778 
1.191000 	 3.635025 
1.192000 	 3.625251 
1.193000 	 3.615476 
1.194000 	 3.604398 
1.195000 	 3.594298 
1.196000 	 3.583546 
1.197000 	 3.572793 
1.198000 	 3.562367 
1.199000 	 3.550963 
1.200000 	 3.541514 
1.201000 	 3.529785 
1.202000 	 3.519359 
1.203000 	 3.508606 
1.204000 	 3.497854 
1.205000 	 3.487428 
1.206000 	 3.476676 
1.207000 	 3.464946 
1.208000 	 3.453868 
1.209000 	 3.443442 
1.210000 	 3.432364 
1.211000 	 3.421286 
1.212000 	 3.410534 
1.213000 	 3.399456 
1.214000 	 3.387726 
1.215000 	 3.376323 
1.216000 	 3.364919 
1.217000 	 3.354167 
1.218000 	 3.343089 
1.219000 	 3.331033 
1.220000 	 3.319304 
1.221000 	 3.308226 
1.222000 	 3.297148 
1.223000 	 3.286070 
1.224000 	 3.273363 
1.225000 	 3.261959 
1.226000 	 3.251533 
1.227000 	 3.239151 
1.228000 	 3.227422 
1.229000 	 3.215366 
1.230000 	 3.203963 
1.231000 	 3.192559 
1.232000 	 3.179852 
1.233000 	 3.168774 
1.234000 	 3.156067 
1.235000 	 3.144989 
1.236000 	 3.133259 
1.237000 	 3.120878 
1.238000 	 3.109474 
1.239000 	 3.097745 
1.240000 	 3.085038 
1.241000 	 3.073308 
1.242000 	 3.060601 
1.243000 	 3.048871 
1.244000 	 3.037793 
1.245000 	 3.024761 
1.246000 	 3.013031 
1.247000 	 3.000975 
1.248000 	 2.988920 
1.249000 	 2.976539 
1.250000 	 2.964809 
1.251000 	 2.952428 
1.252000 	 2.940047 
1.253000 	 2.927991 
1.254000 	 2.915610 
1.255000 	 2.902903 
1.256000 	 2.891499 
1.257000 	 2.878792 
1.258000 	 2.866411 
1.259000 	 2.853704 
1.260000 	 2.841323 
1.261000 	 2.829593 
1.262000 	 2.816560 
1.263000 	 2.803527 
1.264000 	 2.792449 
1.265000 	 2.780394 
1.266000 	 2.767035 
1.267000 	 2.754654 
1.268000 	 2.742599 
1.269000 	 2.730217 
1.270000 	 2.717510 
1.271000 	 2.704152 
1.272000 	 2.692422 
1.273000 	 2.679715 
1.274000 	 2.667008 
1.275000 	 2.654952 
1.276000 	 2.642245 
1.277000 	 2.629864 
1.278000 	 2.617483 
1.279000 	 2.604776 
1.280000 	 2.592069 
1.281000 	 2.579036 
1.282000 	 2.567306 
1.283000 	 2.554273 
1.284000 	 2.541566 
1.285000 	 2.529185 
1.286000 	 2.516804 
1.287000 	 2.504097 
1.288000 	 2.491715 
1.289000 	 2.479334 
1.290000 	 2.465324 
1.291000 	 2.453268 
1.292000 	 2.440561 
1.293000 	 2.429158 
1.294000 	 2.415799 
1.295000 	 2.402766 
1.296000 	 2.391036 
1.297000 	 2.378004 
1.298000 	 2.365296 
1.299000 	 2.353241 
1.300000 	 2.340860 
1.301000 	 2.327827 
1.302000 	 2.315772 
1.303000 	 2.303390 
1.304000 	 2.290683 
1.305000 	 2.277324 
1.306000 	 2.266247 
1.307000 	 2.252562 
1.308000 	 2.240507 
1.309000 	 2.227800 
1.310000 	 2.216396 
1.311000 	 2.203363 
1.312000 	 2.191633 
1.313000 	 2.178926 
1.314000 	 2.166219 
1.315000 	 2.153838 
1.316000 	 2.140805 
1.317000 	 2.127772 
1.318000 	 2.116694 
1.319000 	 2.104965 
1.320000 	 2.090954 
1.321000 	 2.079876 
1.322000 	 2.067169 
1.323000 	 2.055440 
1.324000 	 2.043384 
1.325000 	 2.030677 
1.326000 	 2.018296 
1.327000 	 2.005589 
1.328000 	 1.994185 
1.329000 	 1.981804 
1.330000 	 1.969748 
1.331000 	 1.957367 
1.332000 	 1.944986 
1.333000 	 1.932930 
1.334000 	 1.920875 
1.335000 	 1.907516 
1.336000 	 1.896764 
1.337000 	 1.884057 
1.338000 	 1.872328 
1.339000 	 1.859946 
1.340000 	 1.849194 
1.341000 	 1.837139 
1.342000 	 1.825083 
1.343000 	 1.812702 
1.344000 	 1.801950 
1.345000 	 1.789895 
1.346000 	 1.777513 
1.347000 	 1.766435 
1.348000 	 1.754380 
1.349000 	 1.741999 
1.350000 	 1.730595 
1.351000 	 1.718214 
1.352000 	 1.708765 
1.353000 	 1.696384 
1.354000 	 1.684654 
1.355000 	 1.673576 
1.356000 	 1.661846 
1.357000 	 1.650117 
1.358000 	 1.639365 
1.359000 	 1.626658 
1.360000 	 1.616557 
1.361000 	 1.605153 
1.362000 	 1.594727 
1.363000 	 1.581043 
1.364000 	 1.570942 
1.365000 	 1.559864 
1.366000 	 1.549438 
1.367000 	 1.537382 
1.368000 	 1.526956 
1.369000 	 1.515552 
1.370000 	 1.504474 
1.371000 	 1.493722 
1.372000 	 1.483296 
1.373000 	 1.472218 
1.374000 	 1.461466 
1.375000 	 1.449736 
1.376000 	 1.439636 
1.377000 	 1.428884 
1.378000 	 1.419109 
1.379000 	 1.407705 
1.380000 	 1.396301 
1.381000 	 1.386853 
1.382000 	 1.376752 
1.383000 	 1.365348 
1.384000 	 1.354596 
1.385000 	 1.344170 
1.386000 	 1.335047 
1.387000 	 1.323969 
1.388000 	 1.313868 
1.389000 	 1.303768 
1.390000 	 1.294645 
1.391000 	 1.283567 
1.392000 	 1.274118 
1.393000 	 1.263366 
1.394000 	 1.253591 
1.395000 	 1.243817 
1.396000 	 1.233390 
1.397000 	 1.223290 
1.398000 	 1.214818 
1.399000 	 1.205695 
1.400000 	 1.196247 
1.401000 	 1.184517 
1.402000 	 1.175394 
1.403000 	 1.166923 
1.404000 	 1.157148 
1.405000 	 1.147699 
1.406000 	 1.137273 
1.407000 	 1.129779 
1.408000 	 1.120330 
1.409000 	 1.111533 
1.410000 	 1.101432 
1.411000 	 1.092635 
1.412000 	 1.083512 
1.413000 	 1.074715 
1.414000 	 1.065266 
1.415000 	 1.057121 
1.416000 	 1.048323 
1.417000 	 1.039852 
1.418000 	 1.030077 
1.419000 	 1.021606 
1.420000 	 1.013135 
1.421000 	 1.004663 
1.422000 	 0.996192 
1.423000 	 0.988046 
1.424000 	 0.980226 
1.425000 	 0.973058 
1.426000 	 0.964261 
1.427000 	 0.955138 
1.428000 	 0.946993 
1.429000 	 0.939825 
1.430000 	 0.932331 
1.431000 	 0.922556 
1.432000 	 0.915714 
1.433000 	 0.907894 
1.434000 	 0.900726 
1.435000 	 0.892255 
1.436000 	 0.884435 
1.437000 	 0.877918 
1.438000 	 0.869773 
1.439000 	 0.862605 
1.440000 	 0.855111 
1.441000 	 0.847617 
1.442000 	 0.841752 
1.443000 	 0.834258 
1.444000 	 0.825787 
1.445000 	 0.818619 
1.446000 	 0.813080 
1.447000 	 0.806237 
1.448000 	 0.798092 
1.449000 	 0.791901 
1.450000 	 0.786362 
1.451000 	 0.779520 
1.452000 	 0.771700 
1.453000 	 0.765510 
1.454000 	 0.759645 
1.455000 	 0.753128 
1.456000 	 0.745635 
1.457000 	 0.740421 
1.458000 	 0.734557 
1.459000 	 0.728040 
1.460000 	 0.722175 
1.461000 	 0.715659 
1.462000 	 0.709468 
1.463000 	 0.704907 
1.464000 	 0.699368 
1.465000 	 0.693503 
1.466000 	 0.687964 
1.467000 	 0.682425 
1.468000 	 0.675583 
1.469000 	 0.670695 
1.470000 	 0.666460 
1.471000 	 0.660595 
1.472000 	 0.655708 
1.473000 	 0.651798 
1.474000 	 0.645607 
1.475000 	 0.640394 
1.476000 	 0.636158 
1.477000 	 0.631597 
1.478000 	 0.626058 
1.479000 	 0.621496 
1.480000 	 0.617261 
1.481000 	 0.613351 
1.482000 	 0.608138 
1.483000 	 0.603902 
1.484000 	 0.599015 
1.485000 	 0.595431 
1.486000 	 0.590869 
1.487000 	 0.586633 
1.488000 	 0.583049 
1.489000 	 0.580443 
1.490000 	 0.577836 
1.491000 	 0.571971 
1.492000 	 0.568387 
1.493000 	 0.565455 
1.494000 	 0.561871 
1.495000 	 0.557309 
1.496000 	 0.553725 
1.497000 	 0.551119 
1.498000 	 0.548512 
1.499000 	 0.543951 
1.500000 	 0.541018 
1.501000 	 0.538737 
1.502000 	 0.537108 
1.503000 	 0.533524 
1.504000 	 0.530266 
1.505000 	 0.527985 
1.506000 	 0.525379 
1.507000 	 0.523098 
1.508000 	 0.519840 
1.509000 	 0.517559 
1.510000 	 0.515930 
1.511000 	 0.513649 
1.512000 	 0.510717 
1.513000 	 0.509413 
1.514000 	 0.508110 
1.515000 	 0.505504 
1.516000 	 0.503874 
1.517000 	 0.500942 
1.518000 	 0.499313 
1.519000 	 0.498661 
1.520000 	 0.497032 
1.521000 	 0.495077 
1.522000 	 0.493774 
1.523000 	 0.492797 
1.524000 	 0.492145 
1.525000 	 0.489864 
1.526000 	 0.489864 
1.527000 	 0.488561 
1.528000 	 0.487583 
1.529000 	 0.486606 
1.530000 	 0.485954 
1.531000 	 0.484977 
1.532000 	 0.484651 
1.533000 	 0.483674 
1.534000 	 0.483674 
1.535000 	 0.483022 
1.536000 	 0.483022 
1.537000 	 0.484977 
1.538000 	 0.483022 
1.539000 	 0.482370 
1.540000 	 0.483348 
1.541000 	 0.483348 
1.542000 	 0.482370 
1.543000 	 0.483348 
1.544000 	 0.484325 
1.545000 	 0.485303 
1.546000 	 0.485303 
1.547000 	 0.484651 
1.548000 	 0.486606 
1.549000 	 0.488561 
1.550000 	 0.487909 
1.551000 	 0.489212 
1.552000 	 0.490190 
1.553000 	 0.492145 
1.554000 	 0.493122 
1.555000 	 0.493448 
1.556000 	 0.495077 
1.557000 	 0.497684 
1.558000 	 0.498336 
1.559000 	 0.499639 
1.560000 	 0.501268 
1.561000 	 0.502571 
1.562000 	 0.505178 
1.563000 	 0.506155 
1.564000 	 0.508762 
1.565000 	 0.510717 
1.566000 	 0.513649 
1.567000 	 0.514301 
1.568000 	 0.516582 
1.569000 	 0.518862 
1.570000 	 0.521795 
1.571000 	 0.524075 
1.572000 	 0.527334 
1.573000 	 0.529940 
1.574000 	 0.532547 
1.575000 	 0.536131 
1.576000 	 0.537760 
1.577000 	 0.541344 
1.578000 	 0.545254 
1.579000 	 0.547535 
1.580000 	 0.549815 
1.581000 	 0.553074 
1.582000 	 0.556658 
1.583000 	 0.560568 
1.584000 	 0.563500 
1.585000 	 0.566758 
1.586000 	 0.570994 
1.587000 	 0.574904 
1.588000 	 0.578814 
1.589000 	 0.583049 
1.590000 	 0.586959 
1.591000 	 0.590869 
1.592000 	 0.594453 
1.593000 	 0.598689 
1.594000 	 0.602924 
1.595000 	 0.606834 
1.596000 	 0.612047 
1.597000 	 0.616935 
1.598000 	 0.620845 
1.599000 	 0.626058 
1.600000 	 0.630945 
1.601000 	 0.636484 
1.602000 	 0.639742 
1.603000 	 0.644955 
1.604000 	 0.649843 
1.605000 	 0.656685 
1.606000 	 0.659617 
1.607000 	 0.665156 
1.608000 	 0.670695 
1.609000 	 0.676234 
1.610000 	 0.681448 
1.611000 	 0.686335 
1.612000 	 0.691548 
1.613000 	 0.698390 
1.614000 	 0.702626 
1.615000 	 0.708817 
1.616000 	 0.714681 
1.617000 	 0.721524 
1.618000 	 0.728692 
1.619000 	 0.732276 
1.620000 	 0.738466 
1.621000 	 0.745635 
1.622000 	 0.753128 
1.623000 	 0.757038 
1.624000 	 0.764532 
1.625000 	 0.771049 
1.626000 	 0.778217 
1.627000 	 0.783104 
1.628000 	 0.790598 
1.629000 	 0.798092 
1.630000 	 0.804934 
1.631000 	 0.810473 
1.632000 	 0.817641 
1.633000 	 0.824809 
1.634000 	 0.832629 
1.635000 	 0.839471 
1.636000 	 0.845988 
1.637000 	 0.853807 
1.638000 	 0.861301 
1.639000 	 0.868144 
1.640000 	 0.875312 
1.641000 	 0.883457 
1.642000 	 0.890951 
1.643000 	 0.897793 
1.644000 	 0.905287 
1.645000 	 0.914085 
1.646000 	 0.921253 
1.647000 	 0.930376 
1.648000 	 0.937218 
1.649000 	 0.945038 
1.650000 	 0.953835 
1.651000 	 0.962306 
1.652000 	 0.970778 
1.653000 	 0.978272 
1.654000 	 0.986743 
1.655000 	 0.994888 
1.656000 	 1.003686 
1.657000 	 1.011505 
1.658000 	 1.020628 
1.659000 	 1.028774 
1.660000 	 1.037897 
1.661000 	 1.047020 
1.662000 	 1.054840 
1.663000 	 1.063963 
1.664000 	 1.072760 
1.665000 	 1.083186 
1.666000 	 1.090029 
1.667000 	 1.100129 
1.668000 	 1.108600 
1.669000 	 1.119027 
1.670000 	 1.127498 
1.671000 	 1.135644 
1.672000 	 1.146722 
1.673000 	 1.156496 
1.674000 	 1.164642 
1.675000 	 1.173765 
1.676000 	 1.183865 
1.677000 	 1.192988 
1.678000 	 1.202437 
1.679000 	 1.212212 
1.680000 	 1.221987 
1.681000 	 1.232087 
1.682000 	 1.243165 
1.683000 	 1.251311 
1.684000 	 1.261737 
1.685000 	 1.271837 
1.686000 	 1.282264 
1.687000 	 1.290735 
1.688000 	 1.302139 
1.689000 	 1.311913 
1.690000 	 1.322340 
1.691000 	 1.331789 
1.692000 	 1.342541 
1.693000 	 1.352967 
1.694000 	 1.363719 
1.695000 	 1.374145 
1.696000 	 1.383594 
1.697000 	 1.394998 
1.698000 	 1.405099 
1.699000 	 1.416177 
1.700000 	 1.426603 
1.701000 	 1.437029 
1.702000 	 1.448433 
1.703000 	 1.459185 
1.704000 	 1.469611 
1.705000 	 1.481015 
1.706000 	 1.491116 
1.707000 	 1.503171 
1.708000 	 1.513597 
1.709000 	 1.524675 
1.710000 	 1.535427 
1.711000 	 1.547483 
1.712000 	 1.558235 
1.713000 	 1.568661 
1.714000 	 1.580391 
1.715000 	 1.590817 
1.716000 	 1.603524 
1.717000 	 1.614276 
1.718000 	 1.625680 
1.719000 	 1.636758 
1.720000 	 1.648162 
1.721000 	 1.659240 
1.722000 	 1.669992 
1.723000 	 1.682373 
1.724000 	 1.694754 
1.725000 	 1.704855 
1.726000 	 1.717562 
1.727000 	 1.727988 
1.728000 	 1.741021 
1.729000 	 1.752751 
1.730000 	 1.763503 
1.731000 	 1.775233 
1.732000 	 1.786962 
1.733000 	 1.799343 
1.734000 	 1.810096 
1.735000 	 1.822151 
1.736000 	 1.834206 
1.737000 	 1.847239 
1.738000 	 1.858969 
1.739000 	 1.871024 
1.740000 	 1.882428 
1.741000 	 1.894158 
1.742000 	 1.906539 
1.743000 	 1.918594 
1.744000 	 1.929998 
1.745000 	 1.942705 
1.746000 	 1.955086 
1.747000 	 1.967142 
1.748000 	 1.979197 
1.749000 	 1.992230 
1.750000 	 2.003960 
1.751000 	 2.015689 
1.752000 	 2.027093 
1.753000 	 2.040126 
1.754000 	 2.052833 
1.755000 	 2.064888 
1.756000 	 2.076292 
1.757000 	 2.089651 
1.758000 	 2.102032 
1.759000 	 2.114088 
1.760000 	 2.126469 
1.761000 	 2.138524 
1.762000 	 2.152209 
1.763000 	 2.163613 
1.764000 	 2.175994 
1.765000 	 2.188049 
1.766000 	 2.200430 
1.767000 	 2.213463 
1.768000 	 2.225845 
1.769000 	 2.236923 
1.770000 	 2.250281 
1.771000 	 2.263314 
1.772000 	 2.276021 
1.773000 	 2.287751 
1.774000 	 2.300784 
1.775000 	 2.312839 
1.776000 	 2.325872 
1.777000 	 2.338579 
1.778000 	 2.349331 
1.779000 	 2.363667 
1.780000 	 2.377026 
1.781000 	 2.388756 
1.782000 	 2.400811 
1.783000 	 2.413192 
1.784000 	 2.426225 
1.785000 	 2.438606 
1.786000 	 2.451965 
1.787000 	 2.463369 
1.788000 	 2.476076 
1.789000 	 2.489435 
1.790000 	 2.501490 
1.791000 	 2.513871 
1.792000 	 2.526578 
1.793000 	 2.539285 
1.794000 	 2.552644 
1.795000 	 2.564048 
1.796000 	 2.577081 
1.797000 	 2.588810 
1.798000 	 2.601518 
1.799000 	 2.614550 
1.800000 	 2.627257 
1.801000 	 2.640290 
1.802000 	 2.652346 
1.803000 	 2.664401 
1.804000 	 2.677108 
1.805000 	 2.689815 
1.806000 	 2.702197 
1.807000 	 2.715229 
1.808000 	 2.726633 
1.809000 	 2.739014 
1.810000 	 2.751722 
1.811000 	 2.764754 
1.812000 	 2.776810 
1.813000 	 2.789843 
1.814000 	 2.801898 
1.815000 	 2.814605 
1.816000 	 2.826661 
1.817000 	 2.838716 
1.818000 	 2.851749 
1.819000 	 2.863153 
1.820000 	 2.876186 
1.821000 	 2.888893 
1.822000 	 2.900622 
1.823000 	 2.912678 
1.824000 	 2.925059 
1.825000 	 2.937114 
1.826000 	 2.950147 
1.827000 	 2.962854 
1.828000 	 2.973932 
1.829000 	 2.985988 
1.830000 	 2.998369 
1.831000 	 3.011076 
1.832000 	 3.022806 
1.833000 	 3.035187 
1.834000 	 3.045939 
1.835000 	 3.058972 
1.836000 	 3.071353 
1.837000 	 3.083734 
1.838000 	 3.094812 
1.839000 	 3.107519 
1.840000 	 3.119249 
1.841000 	 3.130653 
1.842000 	 3.142708 
1.843000 	 3.154112 
1.844000 	 3.166167 
1.845000 	 3.178549 
1.846000 	 3.190278 
1.847000 	 3.200379 
1.848000 	 3.212434 
1.849000 	 3.225141 
1.850000 	 3.236545 
1.851000 	 3.247623 
1.852000 	 3.260004 
1.853000 	 3.271082 
1.854000 	 3.282486 
1.855000 	 3.295193 
1.856000 	 3.305293 
1.857000 	 3.316697 
1.858000 	 3.328427 
1.859000 	 3.339831 
1.860000 	 3.350908 
1.861000 	 3.362638 
1.862000 	 3.374694 
1.863000 	 3.386423 
1.864000 	 3.396849 
1.865000 	 3.407602 
1.866000 	 3.418679 
1.867000 	 3.430735 
1.868000 	 3.441813 
1.869000 	 3.451913 
1.870000 	 3.463969 
1.871000 	 3.474069 
1.872000 	 3.483844 
1.873000 	 3.495248 
1.874000 	 3.506326 
1.875000 	 3.517404 
1.876000 	 3.528807 
1.877000 	 3.538256 
1.878000 	 3.549334 
1.879000 	 3.560086 
1.880000 	 3.570513 
1.881000 	 3.580939 
1.882000 	 3.591365 
1.883000 	 3.602443 
1.884000 	 3.612544 
1.885000 	 3.622644 
1.886000 	 3.633070 
1.887000 	 3.643171 
1.888000 	 3.652946 
1.889000 	 3.663046 
1.890000 	 3.673147 
1.891000 	 3.683247 
1.892000 	 3.693673 
1.893000 	 3.703122 
1.894000 	 3.713223 
1.895000 	 3.724301 
1.896000 	 3.734401 
1.897000 	 3.743524 
1.898000 	 3.752647 
1.899000 	 3.762422 
1.900000 	 3.772848 
1.901000 	 3.781645 
1.902000 	 3.791746 
1.903000 	 3.801195 
1.904000 	 3.809992 
1.905000 	 3.819767 
1.906000 	 3.828890 
1.907000 	 3.838338 
1.908000 	 3.847136 
1.909000 	 3.857562 
1.910000 	 3.866033 
1.911000 	 3.875808 
1.912000 	 3.883628 
1.913000 	 3.893077 
1.914000 	 3.902200 
1.915000 	 3.910997 
1.916000 	 3.919794 
1.917000 	 3.928591 
1.918000 	 3.936737 
1.919000 	 3.944882 
1.920000 	 3.954331 
1.921000 	 3.961499 
1.922000 	 3.970622 
1.923000 	 3.978442 
1.924000 	 3.987239 
1.925000 	 3.994733 
1.926000 	 4.004182 
1.927000 	 4.011676 
1.928000 	 4.019821 
1.929000 	 4.027315 
1.930000 	 4.036764 
1.931000 	 4.044258 
1.932000 	 4.051752 
1.933000 	 4.059246 
1.934000 	 4.067717 
1.935000 	 4.074885 
1.936000 	 4.083357 
1.937000 	 4.090199 
1.938000 	 4.098670 
1.939000 	 4.105187 
1.940000 	 4.113007 
1.941000 	 4.120175 
1.942000 	 4.127017 
1.943000 	 4.134837 
1.944000 	 4.141027 
1.945000 	 4.148195 
1.946000 	 4.155363 
1.947000 	 4.162531 
1.948000 	 4.168722 
1.949000 	 4.176216 
1.950000 	 4.182732 
1.951000 	 4.188923 
1.952000 	 4.195440 
1.953000 	 4.201630 
1.954000 	 4.208798 
1.955000 	 4.213686 
1.956000 	 4.221179 
1.957000 	 4.227044 
1.958000 	 4.232909 
1.959000 	 4.238774 
1.960000 	 4.244964 
1.961000 	 4.251155 
1.962000 	 4.256694 
1.963000 	 4.262559 
1.964000 	 4.269075 
1.965000 	 4.274288 
1.966000 	 4.279176 
1.967000 	 4.284715 
1.968000 	 4.288950 
1.969000 	 4.296444 
1.970000 	 4.301983 
1.971000 	 4.307522 
1.972000 	 4.310455 
1.973000 	 4.317297 
1.974000 	 4.321207 
1.975000 	 4.326746 
1.976000 	 4.330330 
1.977000 	 4.337172 
1.978000 	 4.340756 
1.979000 	 4.345969 
1.980000 	 4.349553 
1.981000 	 4.354115 
1.982000 	 4.359002 
1.983000 	 4.363564 
1.984000 	 4.366822 
1.985000 	 4.370406 
1.986000 	 4.376597 
1.987000 	 4.379855 
1.988000 	 4.382461 
1.989000 	 4.386045 
1.990000 	 4.391910 
1.991000 	 4.395494 
1.992000 	 4.398753 
1.993000 	 4.401685 
1.994000 	 4.406572 
1.995000 	 4.408527 
1.996000 	 4.412111 
1.997000 	 4.415369 
1.998000 	 4.418628 
1.999000 	 4.422538 
2.000000 	 4.425144 
2.001000 	 4.428402 
2.002000 	 4.431335 
2.003000 	 4.433941 
2.004000 	 4.436548 
2.005000 	 4.438503 
2.006000 	 4.441109 
2.007000 	 4.445345 
2.008000 	 4.446648 
2.009000 	 4.449255 
2.010000 	 4.451536 
2.011000 	 4.453816 
2.012000 	 4.455446 
2.013000 	 4.458378 
2.014000 	 4.460333 
2.015000 	 4.462614 
2.016000 	 4.463591 
2.017000 	 4.464894 
2.018000 	 4.467175 
2.019000 	 4.469782 
2.020000 	 4.470759 
2.021000 	 4.471737 
2.022000 	 4.473366 
2.023000 	 4.474669 
2.024000 	 4.475647 
2.025000 	 4.477276 
2.026000 	 4.478253 
2.027000 	 4.478905 
2.028000 	 4.479882 
2.029000 	 4.479882 
2.030000 	 4.480860 
2.031000 	 4.481511 
2.032000 	 4.480534 
2.033000 	 4.483140 
2.034000 	 4.484118 
2.035000 	 4.483466 
2.036000 	 4.483466 
2.037000 	 4.484770 
2.038000 	 4.484118 
2.039000 	 4.484444 
2.040000 	 4.483792 
2.041000 	 4.484444 
2.042000 	 4.483792 
2.043000 	 4.483140 
2.044000 	 4.482815 
2.045000 	 4.482815 
2.046000 	 4.481837 
2.047000 	 4.482163 
2.048000 	 4.480534 
2.049000 	 4.478905 
2.050000 	 4.478905 
2.051000 	 4.478253 
2.052000 	 4.477276 
2.053000 	 4.474995 
2.054000 	 4.474995 
2.055000 	 4.473366 
2.056000 	 4.471411 
2.057000 	 4.470108 
2.058000 	 4.470108 
2.059000 	 4.467501 
2.060000 	 4.465872 
2.061000 	 4.463591 
2.062000 	 4.462288 
2.063000 	 4.460985 
2.064000 	 4.458052 
2.065000 	 4.456749 
2.066000 	 4.454142 
2.067000 	 4.453165 
2.068000 	 4.450232 
2.069000 	 4.447626 
2.070000 	 4.445019 
2.071000 	 4.443064 
2.072000 	 4.440132 
2.073000 	 4.437525 
2.074000 	 4.434593 
2.075000 	 4.432312 
2.076000 	 4.429380 
2.077000 	 4.426447 
2.078000 	 4.423189 
2.079000 	 4.419279 
2.080000 	 4.416021 
2.081000 	 4.412763 
2.082000 	 4.409505 
2.083000 	 4.406572 
2.084000 	 4.402988 
2.085000 	 4.400382 
2.086000 	 4.396146 
2.087000 	 4.391910 
2.088000 	 4.389955 
2.089000 	 4.384416 
2.090000 	 4.379529 
2.091000 	 4.376597 
2.092000 	 4.373013 
2.093000 	 4.368451 
2.094000 	 4.365193 
2.095000 	 4.359002 
2.096000 	 4.355092 
2.097000 	 4.351183 
2.098000 	 4.346947 
2.099000 	 4.342059 
2.100000 	 4.335869 
2.101000 	 4.332285 
2.102000 	 4.328049 
2.103000 	 4.321859 
2.104000 	 4.316971 
2.105000 	 4.313061 
2.106000 	 4.307848 
2.107000 	 4.302635 
2.108000 	 4.295793 
2.109000 	 4.292209 
2.110000 	 4.286996 
2.111000 	 4.280805 
2.112000 	 4.275266 
2.113000 	 4.269075 
2.114000 	 4.264840 
2.115000 	 4.258323 
2.116000 	 4.251481 
2.117000 	 4.245942 
2.118000 	 4.240403 
2.119000 	 4.234538 
2.120000 	 4.228673 
2.121000 	 4.221179 
2.122000 	 4.215640 
2.123000 	 4.209776 
2.124000 	 4.203585 
2.125000 	 4.196417 
2.126000 	 4.190878 
2.127000 	 4.183384 
2.128000 	 4.176542 
2.129000 	 4.170677 
2.130000 	 4.163183 
2.131000 	 4.156667 
2.132000 	 4.149499 
2.133000 	 4.141353 
2.134000 	 4.135162 
2.135000 	 4.128646 
2.136000 	 4.120826 
2.137000 	 4.113658 
2.138000 	 4.106490 
2.139000 	 4.099974 
2.140000 	 4.091502 
2.141000 	 4.084660 
2.142000 	 4.076189 
2.143000 	 4.068369 
2.144000 	 4.061527 
2.145000 	 4.053707 
2.146000 	 4.045561 
2.147000 	 4.037416 
2.148000 	 4.031225 
2.149000 	 4.022754 
2.150000 	 4.014282 
2.151000 	 4.005485 
2.152000 	 3.997991 
2.153000 	 3.989520 
2.154000 	 3.981374 
2.155000 	 3.973229 
2.156000 	 3.964432 
2.157000 	 3.954983 
2.158000 	 3.946837 
2.159000 	 3.937714 
2.160000 	 3.928917 
2.161000 	 3.922075 
2.162000 	 3.912626 
2.163000 	 3.903829 
2.164000 	 3.894706 
2.165000 	 3.885908 
2.166000 	 3.877437 
2.167000 	 3.867662 
2.168000 	 3.857888 
2.169000 	 3.849742 
2.170000 	 3.839642 
2.171000 	 3.830845 
2.172000 	 3.821396 
2.173000 	 3.812924 
2.174000 	 3.802172 
2.175000 	 3.793375 
2.176000 	 3.783600 
2.177000 	 3.773500 
2.178000 	 3.765028 
2.179000 	 3.754602 
2.180000 	 3.745479 
2.181000 	 3.735053 
2.182000 	 3.724952 
2.183000 	 3.716481 
2.184000 	 3.705729 
2.185000 	 3.695303 
2.186000 	 3.686505 
2.187000 	 3.675753 
2.188000 	 3.665979 
2.189000 	 3.655878 
2.190000 	 3.645452 
2.191000 	 3.635025 
2.192000 	 3.624599 
2.193000 	 3.614499 
2.194000 	 3.604072 
2.195000 	 3.593972 
2.196000 	 3.582568 
2.197000 	 3.572468 
2.198000 	 3.562367 
2.199000 	 3.551289 
2.200000 	 3.540863 
2.201000 	 3.530436 
2.202000 	 3.520336 
2.203000 	 3.508281 
2.204000 	 3.498506 
2.205000 	 3.487428 
2.206000 	 3.476350 
2.207000 	 3.463969 
2.208000 	 3.453868 
2.209000 	 3.443116 
2.210000 	 3.433016 
2.211000 	 3.420634 
2.212000 	 3.409231 
2.213000 	 3.398479 
2.214000 	 3.387401 
2.215000 	 3.376648 
2.216000 	 3.364919 
2.217000 	 3.353515 
2.218000 	 3.342111 
2.219000 	 3.331033 
2.220000 	 3.318978 
2.221000 	 3.308552 
2.222000 	 3.296822 
2.223000 	 3.286070 
2.224000 	 3.274014 
2.225000 	 3.262285 
2.226000 	 3.250229 
2.227000 	 3.238174 
2.228000 	 3.227422 
2.229000 	 3.215692 
2.230000 	 3.203637 
2.231000 	 3.192233 
2.232000 	 3.180178 
2.233000 	 3.168774 
2.234000 	 3.156718 
2.235000 	 3.145641 
2.236000 	 3.132608 
2.237000 	 3.121530 
2.238000 	 3.109474 
2.239000 	 3.097745 
2.240000 	 3.085363 
2.241000 	 3.072656 
2.242000 	 3.060927 
2.243000 	 3.047894 
2.244000 	 3.037142 
2.245000 	 3.024435 
2.246000 	 3.012705 
2.247000 	 3.001627 
2.248000 	 2.988920 
2.249000 	 2.976865 
2.250000 	 2.964483 
2.251000 	 2.952428 
2.252000 	 2.939721 
2.253000 	 2.927991 
2.254000 	 2.914633 
2.255000 	 2.902251 
2.256000 	 2.890848 
2.257000 	 2.878141 
2.258000 	 2.867063 
2.259000 	 2.854356 
2.260000 	 2.842300 
2.261000 	 2.829267 
2.262000 	 2.816560 
2.263000 	 2.804831 
2.264000 	 2.792123 
2.265000 	 2.780394 
2.266000 	 2.767361 
2.267000 	 2.755957 
2.268000 	 2.741621 
2.269000 	 2.729240 
2.270000 	 2.717184 
2.271000 	 2.705455 
2.272000 	 2.692096 
2.273000 	 2.679389 
2.274000 	 2.667008 
2.275000 	 2.654627 
2.276000 	 2.641594 
2.277000 	 2.629212 
2.278000 	 2.617483 
2.279000 	 2.604776 
2.280000 	 2.591743 
2.281000 	 2.578710 
2.282000 	 2.566655 
2.283000 	 2.553947 
2.284000 	 2.541566 
2.285000 	 2.528859 
2.286000 	 2.516152 
2.287000 	 2.504097 
2.288000 	 2.491715 
2.289000 	 2.479008 
2.290000 	 2.465976 
2.291000 	 2.453268 
2.292000 	 2.441213 
2.293000 	 2.428506 
2.294000 	 2.415147 
2.295000 	 2.403418 
2.296000 	 2.391036 
2.297000 	 2.378329 
2.298000 	 2.364971 
2.299000 	 2.353567 
2.300000 	 2.340860 
2.301000 	 2.327827 
2.302000 	 2.315446 
2.303000 	 2.304042 
2.304000 	 2.291009 
2.305000 	 2.278302 
2.306000 	 2.265269 
2.307000 	 2.253214 
2.308000 	 2.241158 
2.309000 	 2.227800 
2.310000 	 2.216070 
2.311000 	 2.202711 
2.312000 	 2.190982 
2.313000 	 2.178600 
2.314000 	 2.165893 
2.315000 	 2.153512 
2.316000 	 2.141131 
2.317000 	 2.129075 
2.318000 	 2.116368 
2.319000 	 2.103987 
2.320000 	 2.091606 
2.321000 	 2.080202 
2.322000 	 2.067169 
2.323000 	 2.054788 
2.324000 	 2.042733 
2.325000 	 2.030351 
2.326000 	 2.018622 
2.327000 	 2.005263 
2.328000 	 1.993533 
2.329000 	 1.982130 
2.330000 	 1.969097 
2.331000 	 1.957367 
2.332000 	 1.944660 
2.333000 	 1.933256 
2.334000 	 1.921527 
2.335000 	 1.908820 
2.336000 	 1.896764 
2.337000 	 1.884383 
2.338000 	 1.872653 
2.339000 	 1.860924 
2.340000 	 1.849194 
2.341000 	 1.837139 
2.342000 	 1.825083 
2.343000 	 1.813354 
2.344000 	 1.801624 
2.345000 	 1.789243 
2.346000 	 1.778491 
2.347000 	 1.766435 
2.348000 	 1.754054 
2.349000 	 1.742325 
2.350000 	 1.730269 
2.351000 	 1.719191 
2.352000 	 1.708439 
2.353000 	 1.696384 
2.354000 	 1.684654 
2.355000 	 1.672599 
2.356000 	 1.662824 
2.357000 	 1.650443 
2.358000 	 1.639039 
2.359000 	 1.627309 
2.360000 	 1.616883 
2.361000 	 1.604828 
2.362000 	 1.593750 
2.363000 	 1.582020 
2.364000 	 1.571594 
2.365000 	 1.559538 
2.366000 	 1.548786 
2.367000 	 1.538034 
2.368000 	 1.527282 
2.369000 	 1.516204 
2.370000 	 1.504149 
2.371000 	 1.493396 
2.372000 	 1.483296 
2.373000 	 1.472218 
2.374000 	 1.461466 
2.375000 	 1.450714 
2.376000 	 1.439636 
2.377000 	 1.428884 
2.378000 	 1.418131 
2.379000 	 1.406402 
2.380000 	 1.396953 
2.381000 	 1.386527 
2.382000 	 1.377078 
2.383000 	 1.365348 
2.384000 	 1.355248 
2.385000 	 1.344821 
2.386000 	 1.335047 
2.387000 	 1.323969 
2.388000 	 1.314194 
2.389000 	 1.303768 
2.390000 	 1.294319 
2.391000 	 1.283567 
2.392000 	 1.273466 
2.393000 	 1.264018 
2.394000 	 1.254569 
2.395000 	 1.243165 
2.396000 	 1.234042 
2.397000 	 1.223941 
2.398000 	 1.215144 
2.399000 	 1.205695 
2.400000 	 1.194292 
2.401000 	 1.185169 
2.402000 	 1.176046 
2.403000 	 1.166597 
2.404000 	 1.157474 
2.405000 	 1.147699 
2.406000 	 1.137924 
2.407000 	 1.129127 
2.408000 	 1.120004 
2.409000 	 1.110881 
2.410000 	 1.102084 
2.411000 	 1.092961 
2.412000 	 1.083838 
2.413000 	 1.073737 
2.414000 	 1.065266 
2.415000 	 1.057772 
2.416000 	 1.049301 
2.417000 	 1.038874 
2.418000 	 1.030403 
2.419000 	 1.022583 
2.420000 	 1.014764 
2.421000 	 1.004663 
2.422000 	 0.996192 
2.423000 	 0.988372 
2.424000 	 0.980552 
2.425000 	 0.972081 
2.426000 	 0.963935 
2.427000 	 0.955138 
2.428000 	 0.946341 
2.429000 	 0.938521 
2.430000 	 0.931679 
2.431000 	 0.923208 
2.432000 	 0.916040 
2.433000 	 0.908546 
2.434000 	 0.900074 
2.435000 	 0.892580 
2.436000 	 0.884761 
2.437000 	 0.877593 
2.438000 	 0.869121 
2.439000 	 0.861953 
2.440000 	 0.854785 
2.441000 	 0.847291 
2.442000 	 0.840123 
2.443000 	 0.834584 
2.444000 	 0.826438 
2.445000 	 0.819922 
2.446000 	 0.813080 
2.447000 	 0.805586 
2.448000 	 0.798418 
2.449000 	 0.793530 
2.450000 	 0.785711 
2.451000 	 0.778217 
2.452000 	 0.773004 
2.453000 	 0.765184 
2.454000 	 0.758342 
2.455000 	 0.752803 
2.456000 	 0.746612 
2.457000 	 0.740096 
2.458000 	 0.734557 
2.459000 	 0.727388 
2.460000 	 0.721524 
2.461000 	 0.715985 
2.462000 	 0.711097 
2.463000 	 0.705884 
2.464000 	 0.698390 
2.465000 	 0.693177 
2.466000 	 0.687638 
2.467000 	 0.682425 
2.468000 	 0.675257 
2.469000 	 0.671673 
2.470000 	 0.665808 
2.471000 	 0.661247 
2.472000 	 0.657011 
2.473000 	 0.650494 
2.474000 	 0.646585 
2.475000 	 0.642675 
2.476000 	 0.635507 
2.477000 	 0.631271 
2.478000 	 0.626384 
2.479000 	 0.622148 
2.480000 	 0.617912 
2.481000 	 0.613351 
2.482000 	 0.608138 
2.483000 	 0.604554 
2.484000 	 0.599666 
2.485000 	 0.595105 
2.486000 	 0.591195 
2.487000 	 0.587285 
2.488000 	 0.583049 
2.489000 	 0.579139 
2.490000 	 0.575230 
2.491000 	 0.571646 
2.492000 	 0.569365 
2.493000 	 0.564803 
2.494000 	 0.561219 
2.495000 	 0.557961 
2.496000 	 0.553725 
2.497000 	 0.551119 
2.498000 	 0.547860 
2.499000 	 0.544928 
2.500000 	 0.541996 
2.501000 	 0.538737 
2.502000 	 0.535479 
2.503000 	 0.533524 
2.504000 	 0.529940 
2.505000 	 0.527985 
2.506000 	 0.525053 
2.507000 	 0.522121 
2.508000 	 0.520166 
2.509000 	 0.518536 
2.510000 	 0.516907 
2.511000 	 0.512672 
2.512000 	 0.511368 
2.513000 	 0.509413 
2.514000 	 0.507459 
2.515000 	 0.504852 
2.516000 	 0.503549 
2.517000 	 0.501594 
2.518000 	 0.499965 
2.519000 	 0.497358 
2.520000 	 0.496706 
2.521000 	 0.495077 
2.522000 	 0.494100 
2.523000 	 0.492471 
2.524000 	 0.492471 
2.525000 	 0.491167 
2.526000 	 0.489864 
2.527000 	 0.490516 
2.528000 	 0.487909 
2.529000 	 0.486280 
2.530000 	 0.486932 
2.531000 	 0.486932 
2.532000 	 0.483674 
2.533000 	 0.483674 
2.534000 	 0.484325 
2.535000 	 0.483999 
2.536000 	 0.483674 
2.537000 	 0.483022 
2.538000 	 0.483022 
2.539000 	 0.484325 
2.540000 	 0.483348 
2.541000 	 0.482696 
2.542000 	 0.483999 
2.543000 	 0.484651 
2.544000 	 0.485303 
2.545000 	 0.484977 
2.546000 	 0.485628 
2.547000 	 0.486280 
2.548000 	 0.487583 
2.549000 	 0.486932 
2.550000 	 0.488561 
2.551000 	 0.489864 
2.552000 	 0.491167 
2.553000 	 0.490516 
2.554000 	 0.492471 
2.555000 	 0.493774 
2.556000 	 0.496055 
2.557000 	 0.496055 
2.558000 	 0.497684 
2.559000 	 0.498987 
2.560000 	 0.501920 
2.561000 	 0.503223 
2.562000 	 0.504200 
2.563000 	 0.506481 
2.564000 	 0.508762 
2.565000 	 0.511043 
2.566000 	 0.512020 
2.567000 	 0.515278 
2.568000 	 0.517233 
2.569000 	 0.519840 
2.570000 	 0.522121 
2.571000 	 0.525053 
2.572000 	 0.528311 
2.573000 	 0.530266 
2.574000 	 0.533524 
2.575000 	 0.535479 
2.576000 	 0.538412 
2.577000 	 0.540692 
2.578000 	 0.544928 
2.579000 	 0.547209 
2.580000 	 0.549815 
2.581000 	 0.553399 
2.582000 	 0.557309 
2.583000 	 0.560568 
2.584000 	 0.563826 
2.585000 	 0.567736 
2.586000 	 0.570668 
2.587000 	 0.574904 
2.588000 	 0.578814 
2.589000 	 0.582398 
2.590000 	 0.588262 
2.591000 	 0.592172 
2.592000 	 0.594453 
2.593000 	 0.598689 
2.594000 	 0.602924 
2.595000 	 0.608789 
2.596000 	 0.611396 
2.597000 	 0.615957 
2.598000 	 0.621170 
2.599000 	 0.626384 
2.600000 	 0.630619 
2.601000 	 0.634855 
2.602000 	 0.639742 
2.603000 	 0.645933 
2.604000 	 0.650494 
2.605000 	 0.654079 
2.606000 	 0.659943 
2.607000 	 0.665156 
2.608000 	 0.671021 
2.609000 	 0.676234 
2.610000 	 0.680796 
2.611000 	 0.687312 
2.612000 	 0.692526 
2.613000 	 0.698065 
2.614000 	 0.704255 
2.615000 	 0.709794 
2.616000 	 0.714681 
2.617000 	 0.720872 
2.618000 	 0.726411 
2.619000 	 0.733905 
2.620000 	 0.738792 
2.621000 	 0.744983 
2.622000 	 0.751825 
2.623000 	 0.757690 
2.624000 	 0.764532 
2.625000 	 0.771049 
2.626000 	 0.776913 
2.627000 	 0.784733 
2.628000 	 0.790924 
2.629000 	 0.798092 
2.630000 	 0.803957 
2.631000 	 0.811125 
2.632000 	 0.817641 
2.633000 	 0.825461 
2.634000 	 0.831977 
2.635000 	 0.839145 
2.636000 	 0.846314 
2.637000 	 0.853156 
2.638000 	 0.861953 
2.639000 	 0.868469 
2.640000 	 0.876289 
2.641000 	 0.882806 
2.642000 	 0.891603 
2.643000 	 0.897793 
2.644000 	 0.907242 
2.645000 	 0.914410 
2.646000 	 0.922556 
2.647000 	 0.930050 
2.648000 	 0.937544 
2.649000 	 0.945689 
2.650000 	 0.953835 
2.651000 	 0.962632 
2.652000 	 0.969474 
2.653000 	 0.978272 
2.654000 	 0.986417 
2.655000 	 0.996518 
2.656000 	 1.003034 
2.657000 	 1.011505 
2.658000 	 1.021280 
2.659000 	 1.029100 
2.660000 	 1.036920 
2.661000 	 1.046368 
2.662000 	 1.054840 
2.663000 	 1.064289 
2.664000 	 1.072108 
2.665000 	 1.082209 
2.666000 	 1.090680 
2.667000 	 1.100129 
2.668000 	 1.108600 
2.669000 	 1.117723 
2.670000 	 1.127498 
2.671000 	 1.136947 
2.672000 	 1.146396 
2.673000 	 1.154867 
2.674000 	 1.164968 
2.675000 	 1.174091 
2.676000 	 1.184517 
2.677000 	 1.192988 
2.678000 	 1.202763 
2.679000 	 1.211886 
2.680000 	 1.221661 
2.681000 	 1.231435 
2.682000 	 1.241536 
2.683000 	 1.251962 
2.684000 	 1.261411 
2.685000 	 1.271186 
2.686000 	 1.281612 
2.687000 	 1.292038 
2.688000 	 1.302139 
2.689000 	 1.312239 
2.690000 	 1.322340 
2.691000 	 1.333092 
2.692000 	 1.342867 
2.693000 	 1.352315 
2.694000 	 1.362742 
2.695000 	 1.373168 
2.696000 	 1.384572 
2.697000 	 1.394672 
2.698000 	 1.404773 
2.699000 	 1.416828 
2.700000 	 1.427254 
2.701000 	 1.437681 
2.702000 	 1.448759 
2.703000 	 1.459185 
2.704000 	 1.469611 
2.705000 	 1.480689 
2.706000 	 1.492745 
2.707000 	 1.503171 
2.708000 	 1.514901 
2.709000 	 1.525653 
2.710000 	 1.536405 
2.711000 	 1.547157 
2.712000 	 1.557909 
2.713000 	 1.568987 
2.714000 	 1.580391 
2.715000 	 1.591143 
2.716000 	 1.602873 
2.717000 	 1.614602 
2.718000 	 1.626006 
2.719000 	 1.638061 
2.720000 	 1.648162 
2.721000 	 1.659892 
2.722000 	 1.670969 
2.723000 	 1.683025 
2.724000 	 1.694103 
2.725000 	 1.705507 
2.726000 	 1.717562 
2.727000 	 1.728640 
2.728000 	 1.740695 
2.729000 	 1.752099 
2.730000 	 1.764480 
2.731000 	 1.774907 
2.732000 	 1.787288 
2.733000 	 1.799018 
2.734000 	 1.810747 
2.735000 	 1.822477 
2.736000 	 1.835510 
2.737000 	 1.845936 
2.738000 	 1.858317 
2.739000 	 1.871024 
2.740000 	 1.882428 
2.741000 	 1.893832 
2.742000 	 1.907842 
2.743000 	 1.918594 
2.744000 	 1.930324 
2.745000 	 1.943031 
2.746000 	 1.954761 
2.747000 	 1.967142 
2.748000 	 1.979849 
2.749000 	 1.991253 
2.750000 	 2.003960 
2.751000 	 2.016015 
2.752000 	 2.028071 
2.753000 	 2.040452 
2.754000 	 2.052181 
2.755000 	 2.064888 
2.756000 	 2.076618 
2.757000 	 2.089651 
2.758000 	 2.101706 
2.759000 	 2.114088 
2.760000 	 2.127120 
2.761000 	 2.138198 
2.762000 	 2.150905 
2.763000 	 2.163613 
2.764000 	 2.175342 
2.765000 	 2.189027 
2.766000 	 2.201734 
2.767000 	 2.212812 
2.768000 	 2.225519 
2.769000 	 2.238552 
2.770000 	 2.250281 
2.771000 	 2.263640 
2.772000 	 2.275695 
2.773000 	 2.289054 
2.774000 	 2.300784 
2.775000 	 2.312513 
2.776000 	 2.326524 
2.777000 	 2.337602 
2.778000 	 2.351612 
2.779000 	 2.363342 
2.780000 	 2.376700 
2.781000 	 2.388104 
2.782000 	 2.400811 
2.783000 	 2.412867 
2.784000 	 2.426225 
2.785000 	 2.439258 
2.786000 	 2.451314 
2.787000 	 2.463695 
2.788000 	 2.476076 
2.789000 	 2.488457 
2.790000 	 2.502142 
2.791000 	 2.513546 
2.792000 	 2.526578 
2.793000 	 2.539285 
2.794000 	 2.551993 
2.795000 	 2.565025 
2.796000 	 2.577733 
2.797000 	 2.589462 
2.798000 	 2.602821 
2.799000 	 2.614550 
2.800000 	 2.627257 
2.801000 	 2.639313 
2.802000 	 2.652672 
2.803000 	 2.664401 
2.804000 	 2.676782 
2.805000 	 2.690141 
2.806000 	 2.701871 
2.807000 	 2.715229 
2.808000 	 2.726633 
2.809000 	 2.739666 
2.810000 	 2.751722 
2.811000 	 2.765732 
2.812000 	 2.777136 
2.813000 	 2.789843 
2.814000 	 2.802224 
2.815000 	 2.814279 
2.816000 	 2.826661 
2.817000 	 2.838390 
2.818000 	 2.851423 
2.819000 	 2.864130 
2.820000 	 2.876837 
2.821000 	 2.888893 
2.822000 	 2.899971 
2.823000 	 2.913329 
2.824000 	 2.926036 
2.825000 	 2.938092 
2.826000 	 2.949821 
2.827000 	 2.962203 
2.828000 	 2.974258 
2.829000 	 2.986965 
2.830000 	 2.998369 
2.831000 	 3.011076 
2.832000 	 3.023457 
2.833000 	 3.034861 
2.834000 	 3.046265 
2.835000 	 3.058646 
2.836000 	 3.071027 
2.837000 	 3.082757 
2.838000 	 3.094812 
2.839000 	 3.107194 
2.840000 	 3.119575 
2.841000 	 3.130653 
2.842000 	 3.142708 
2.843000 	 3.154764 
2.844000 	 3.167145 
2.845000 	 3.178549 
2.846000 	 3.189952 
2.847000 	 3.202008 
2.848000 	 3.213412 
2.849000 	 3.225141 
2.850000 	 3.236545 
2.851000 	 3.247949 
2.852000 	 3.260330 
2.853000 	 3.270756 
2.854000 	 3.282486 
2.855000 	 3.294215 
2.856000 	 3.306271 
2.857000 	 3.317675 
2.858000 	 3.329078 
2.859000 	 3.339831 
2.860000 	 3.351234 
2.861000 	 3.362964 
2.862000 	 3.374368 
2.863000 	 3.385771 
2.864000 	 3.397175 
2.865000 	 3.407927 
2.866000 	 3.418679 
2.867000 	 3.430083 
2.868000 	 3.441161 
2.869000 	 3.452891 
2.870000 	 3.463317 
2.871000 	 3.474069 
2.872000 	 3.484496 
2.873000 	 3.495899 
2.874000 	 3.506651 
2.875000 	 3.517078 
2.876000 	 3.528156 
2.877000 	 3.538908 
2.878000 	 3.549660 
2.879000 	 3.559109 
2.880000 	 3.571164 
2.881000 	 3.580613 
2.882000 	 3.592017 
2.883000 	 3.602769 
2.884000 	 3.611566 
2.885000 	 3.622970 
2.886000 	 3.633722 
2.887000 	 3.643497 
2.888000 	 3.653271 
2.889000 	 3.664024 
2.890000 	 3.674450 
2.891000 	 3.683573 
2.892000 	 3.693673 
2.893000 	 3.704100 
2.894000 	 3.713223 
2.895000 	 3.724301 
2.896000 	 3.734401 
2.897000 	 3.743198 
2.898000 	 3.752321 
2.899000 	 3.762748 
2.900000 	 3.771871 
2.901000 	 3.781971 
2.902000 	 3.791746 
2.903000 	 3.801846 
2.904000 	 3.810318 
2.905000 	 3.819767 
2.906000 	 3.829215 
2.907000 	 3.838338 
2.908000 	 3.847787 
2.909000 	 3.857888 
2.910000 	 3.865707 
2.911000 	 3.874179 
2.912000 	 3.883954 
2.913000 	 3.893402 
2.914000 	 3.901222 
2.915000 	 3.910345 
2.916000 	 3.919468 
2.917000 	 3.928265 
2.918000 	 3.936737 
2.919000 	 3.945534 
2.920000 	 3.954657 
2.921000 	 3.963128 
2.922000 	 3.970296 
2.923000 	 3.979419 
2.924000 	 3.987565 
2.925000 	 3.996036 
2.926000 	 4.004182 
2.927000 	 4.011350 
2.928000 	 4.021450 
2.929000 	 4.028619 
2.930000 	 4.036112 
2.931000 	 4.044584 
2.932000 	 4.052078 
2.933000 	 4.060223 
2.934000 	 4.067717 
2.935000 	 4.074559 
2.936000 	 4.083031 
2.937000 	 4.090525 
2.938000 	 4.098019 
2.939000 	 4.105838 
2.940000 	 4.112681 
2.941000 	 4.119197 
2.942000 	 4.127343 
2.943000 	 4.133859 
2.944000 	 4.141027 
2.945000 	 4.148847 
2.946000 	 4.155363 
2.947000 	 4.162206 
2.948000 	 4.168722 
2.949000 	 4.174913 
2.950000 	 4.182081 
2.951000 	 4.189249 
2.952000 	 4.195114 
2.953000 	 4.201956 
2.954000 	 4.208472 
2.955000 	 4.214989 
2.956000 	 4.220854 
2.957000 	 4.227370 
2.958000 	 4.231280 
2.959000 	 4.239426 
2.960000 	 4.243987 
2.961000 	 4.251155 
2.962000 	 4.256694 
2.963000 	 4.263536 
2.964000 	 4.268098 
2.965000 	 4.273637 
2.966000 	 4.278850 
2.967000 	 4.286018 
2.968000 	 4.290580 
2.969000 	 4.296119 
2.970000 	 4.301006 
2.971000 	 4.307197 
2.972000 	 4.312084 
2.973000 	 4.316320 
2.974000 	 4.320555 
2.975000 	 4.326746 
2.976000 	 4.331959 
2.977000 	 4.336521 
2.978000 	 4.340430 
2.979000 	 4.345318 
2.980000 	 4.350531 
2.981000 	 4.353789 
2.982000 	 4.359328 
2.983000 	 4.362912 
2.984000 	 4.368125 
2.985000 	 4.371383 
2.986000 	 4.374968 
2.987000 	 4.379529 
2.988000 	 4.384742 
2.989000 	 4.387675 
2.990000 	 4.390607 
2.991000 	 4.395820 
2.992000 	 4.399404 
2.993000 	 4.402337 
2.994000 	 4.406246 
2.995000 	 4.408853 
2.996000 	 4.412111 
2.997000 	 4.416021 
2.998000 	 4.418628 
2.999000 	 4.421886 
3.000000 	 4.425470 
3.001000 	 4.428728 
3.002000 	 4.431986 
3.003000 	 4.434593 
3.004000 	 4.437200 
3.005000 	 4.438177 
3.006000 	 4.442413 
3.007000 	 4.444368 
3.008000 	 4.447626 
3.009000 	 4.449255 
3.010000 	 4.451862 
3.011000 	 4.454142 
3.012000 	 4.456423 
3.013000 	 4.457401 
3.014000 	 4.459681 
3.015000 	 4.461962 
3.016000 	 4.463265 
3.017000 	 4.465546 
3.018000 	 4.467827 
3.019000 	 4.469130 
3.020000 	 4.469782 
3.021000 	 4.471085 
3.022000 	 4.470759 
3.023000 	 4.474343 
3.024000 	 4.475972 
3.025000 	 4.476624 
3.026000 	 4.477276 
3.027000 	 4.478253 
3.028000 	 4.479882 
3.029000 	 4.480208 
3.030000 	 4.480534 
3.031000 	 4.482489 
3.032000 	 4.482815 
3.033000 	 4.483140 
3.034000 	 4.482489 
3.035000 	 4.483792 
3.036000 	 4.485095 
3.037000 	 4.483466 
3.038000 	 4.483792 
3.039000 	 4.483466 
3.040000 	 4.483792 
3.041000 	 4.483140 
3.042000 	 4.483140 
3.043000 	 4.483466 
3.044000 	 4.483140 
3.045000 	 4.481511 
3.046000 	 4.482163 
3.047000 	 4.481186 
3.048000 	 4.481186 
3.049000 	 4.479556 
3.050000 	 4.478905 
3.051000 	 4.477927 
3.052000 	 4.477276 
3.053000 	 4.475647 
3.054000 	 4.474669 
3.055000 	 4.473366 
3.056000 	 4.472714 
3.057000 	 4.470759 
3.058000 	 4.469456 
3.059000 	 4.467827 
3.060000 	 4.465546 
3.061000 	 4.464894 
3.062000 	 4.462940 
3.063000 	 4.461636 
3.064000 	 4.458704 
3.065000 	 4.456749 
3.066000 	 4.455120 
3.067000 	 4.452187 
3.068000 	 4.450232 
3.069000 	 4.446323 
3.070000 	 4.445345 
3.071000 	 4.442413 
3.072000 	 4.440458 
3.073000 	 4.437200 
3.074000 	 4.434919 
3.075000 	 4.431986 
3.076000 	 4.428728 
3.077000 	 4.425470 
3.078000 	 4.422863 
3.079000 	 4.419931 
3.080000 	 4.417324 
3.081000 	 4.412763 
3.082000 	 4.410808 
3.083000 	 4.406898 
3.084000 	 4.402988 
3.085000 	 4.400056 
3.086000 	 4.394191 
3.087000 	 4.392562 
3.088000 	 4.388326 
3.089000 	 4.385068 
3.090000 	 4.379855 
3.091000 	 4.377248 
3.092000 	 4.372361 
3.093000 	 4.368451 
3.094000 	 4.363238 
3.095000 	 4.359654 
3.096000 	 4.355418 
3.097000 	 4.350531 
3.098000 	 4.345644 
3.099000 	 4.342711 
3.100000 	 4.337824 
3.101000 	 4.332285 
3.102000 	 4.326420 
3.103000 	 4.321533 
3.104000 	 4.317623 
3.105000 	 4.311758 
3.106000 	 4.308174 
3.107000 	 4.301658 
3.108000 	 4.296770 
3.109000 	 4.291883 
3.110000 	 4.286018 
3.111000 	 4.280805 
3.112000 	 4.276243 
3.113000 	 4.270053 
3.114000 	 4.263862 
3.115000 	 4.258323 
3.116000 	 4.251807 
3.117000 	 4.245942 
3.118000 	 4.240077 
3.119000 	 4.234538 
3.120000 	 4.227696 
3.121000 	 4.222809 
3.122000 	 4.216618 
3.123000 	 4.209124 
3.124000 	 4.202282 
3.125000 	 4.197394 
3.126000 	 4.190226 
3.127000 	 4.183058 
3.128000 	 4.176542 
3.129000 	 4.171003 
3.130000 	 4.163509 
3.131000 	 4.156667 
3.132000 	 4.149173 
3.133000 	 4.140701 
3.134000 	 4.136140 
3.135000 	 4.127994 
3.136000 	 4.121804 
3.137000 	 4.112681 
3.138000 	 4.106164 
3.139000 	 4.098996 
3.140000 	 4.092154 
3.141000 	 4.083031 
3.142000 	 4.076189 
3.143000 	 4.069021 
3.144000 	 4.061201 
3.145000 	 4.053381 
3.146000 	 4.046213 
3.147000 	 4.037742 
3.148000 	 4.029922 
3.149000 	 4.022428 
3.150000 	 4.012653 
3.151000 	 4.006463 
3.152000 	 3.997665 
3.153000 	 3.988868 
3.154000 	 3.980723 
3.155000 	 3.972577 
3.156000 	 3.964106 
3.157000 	 3.955960 
3.158000 	 3.947489 
3.159000 	 3.938366 
3.160000 	 3.930546 
3.161000 	 3.920446 
3.162000 	 3.910997 
3.163000 	 3.902525 
3.164000 	 3.894706 
3.165000 	 3.885908 
3.166000 	 3.876460 
3.167000 	 3.867988 
3.168000 	 3.858539 
3.169000 	 3.850068 
3.170000 	 3.839316 
3.171000 	 3.830845 
3.172000 	 3.822047 
3.173000 	 3.811621 
3.174000 	 3.803475 
3.175000 	 3.793701 
3.176000 	 3.784252 
3.177000 	 3.773500 
3.178000 	 3.764703 
3.179000 	 3.754602 
3.180000 	 3.745805 
3.181000 	 3.735379 
3.182000 	 3.725604 
3.183000 	 3.715178 
3.184000 	 3.706055 
3.185000 	 3.695954 
3.186000 	 3.685854 
3.187000 	 3.675102 
3.188000 	 3.665327 
3.189000 	 3.655226 
3.190000 	 3.645126 
3.191000 	 3.634374 
3.192000 	 3.624273 
3.193000 	 3.614173 
3.194000 	 3.604072 
3.195000 	 3.594623 
3.196000 	 3.582894 
3.197000 	 3.571490 
3.198000 	 3.561715 
3.199000 	 3.551289 
3.200000 	 3.540863 
3.201000 	 3.529459 
3.202000 	 3.519033 
3.203000 	 3.508932 
3.204000 	 3.498180 
3.205000 	 3.486776 
3.206000 	 3.476350 
3.207000 	 3.465924 
3.208000 	 3.453542 
3.209000 	 3.441813 
3.210000 	 3.432038 
3.211000 	 3.420960 
3.212000 	 3.410208 
3.213000 	 3.398153 
3.214000 	 3.387726 
3.215000 	 3.376648 
3.216000 	 3.364919 
3.217000 	 3.353189 
3.218000 	 3.342437 
3.219000 	 3.330708 
3.220000 	 3.319304 
3.221000 	 3.308552 
3.222000 	 3.296822 
3.223000 	 3.286396 
3.224000 	 3.273689 
3.225000 	 3.262611 
3.226000 	 3.250229 
3.227000 	 3.240129 
3.228000 	 3.227748 
3.229000 	 3.215041 
3.230000 	 3.204614 
3.231000 	 3.192559 
3.232000 	 3.180504 
3.233000 	 3.169100 
3.234000 	 3.156718 
3.235000 	 3.144989 
3.236000 	 3.133259 
3.237000 	 3.121204 
3.238000 	 3.109148 
3.239000 	 3.097093 
3.240000 	 3.085363 
3.241000 	 3.072656 
3.242000 	 3.059949 
3.243000 	 3.048220 
3.244000 	 3.037793 
3.245000 	 3.025086 
3.246000 	 3.013357 
3.247000 	 3.001301 
3.248000 	 2.989246 
3.249000 	 2.976213 
3.250000 	 2.965135 
3.251000 	 2.952754 
3.252000 	 2.940373 
3.253000 	 2.927991 
3.254000 	 2.914958 
3.255000 	 2.902903 
3.256000 	 2.890848 
3.257000 	 2.878141 
3.258000 	 2.867063 
3.259000 	 2.854356 
3.260000 	 2.841648 
3.261000 	 2.827964 
3.262000 	 2.817212 
3.263000 	 2.804505 
3.264000 	 2.792449 
3.265000 	 2.779416 
3.266000 	 2.767035 
3.267000 	 2.754328 
3.268000 	 2.742273 
3.269000 	 2.729566 
3.270000 	 2.717184 
3.271000 	 2.704152 
3.272000 	 2.693074 
3.273000 	 2.679715 
3.274000 	 2.667008 
3.275000 	 2.655278 
3.276000 	 2.641268 
3.277000 	 2.629864 
3.278000 	 2.616505 
3.279000 	 2.604124 
3.280000 	 2.592395 
3.281000 	 2.578384 
3.282000 	 2.566329 
3.283000 	 2.554925 
3.284000 	 2.541892 
3.285000 	 2.528859 
3.286000 	 2.517130 
3.287000 	 2.503771 
3.288000 	 2.491064 
3.289000 	 2.478357 
3.290000 	 2.466953 
3.291000 	 2.453594 
3.292000 	 2.441213 
3.293000 	 2.428180 
3.294000 	 2.414821 
3.295000 	 2.403743 
3.296000 	 2.390711 
3.297000 	 2.377678 
3.298000 	 2.365948 
3.299000 	 2.353567 
3.300000 	 2.340860 
3.301000 	 2.327501 
3.302000 	 2.315446 
3.303000 	 2.302739 
3.304000 	 2.291335 
3.305000 	 2.277650 
3.306000 	 2.265921 
3.307000 	 2.253214 
3.308000 	 2.240832 
3.309000 	 2.228451 
3.310000 	 2.215744 
3.311000 	 2.202711 
3.312000 	 2.190656 
3.313000 	 2.177949 
3.314000 	 2.166219 
3.315000 	 2.153186 
3.316000 	 2.139828 
3.317000 	 2.128750 
3.318000 	 2.117020 
3.319000 	 2.103335 
3.320000 	 2.091606 
3.321000 	 2.079225 
3.322000 	 2.067495 
3.323000 	 2.054788 
3.324000 	 2.043384 
3.325000 	 2.030677 
3.326000 	 2.018296 
3.327000 	 2.005589 
3.328000 	 1.994511 
3.329000 	 1.982130 
3.330000 	 1.968445 
3.331000 	 1.957693 
3.332000 	 1.944334 
3.333000 	 1.932930 
3.334000 	 1.920875 
3.335000 	 1.908820 
3.336000 	 1.897416 
3.337000 	 1.884057 
3.338000 	 1.872328 
3.339000 	 1.860598 
3.340000 	 1.848543 
3.341000 	 1.837139 
3.342000 	 1.825409 
3.343000 	 1.812376 
3.344000 	 1.801950 
3.345000 	 1.788917 
3.346000 	 1.778491 
3.347000 	 1.766435 
3.348000 	 1.754380 
3.349000 	 1.741999 
3.350000 	 1.730921 
3.351000 	 1.718214 
3.352000 	 1.708113 
3.353000 	 1.696384 
3.354000 	 1.684002 
3.355000 	 1.672599 
3.356000 	 1.662172 
3.357000 	 1.650117 
3.358000 	 1.638387 
3.359000 	 1.627309 
3.360000 	 1.615580 
3.361000 	 1.605153 
3.362000 	 1.593750 
3.363000 	 1.582672 
3.364000 	 1.570616 
3.365000 	 1.559212 
3.366000 	 1.549438 
3.367000 	 1.538686 
3.368000 	 1.526630 
3.369000 	 1.516204 
3.370000 	 1.504149 
3.371000 	 1.492745 
3.372000 	 1.482970 
3.373000 	 1.471566 
3.374000 	 1.461140 
3.375000 	 1.451040 
3.376000 	 1.439636 
3.377000 	 1.428558 
3.378000 	 1.418783 
3.379000 	 1.406402 
3.380000 	 1.397605 
3.381000 	 1.385875 
3.382000 	 1.376426 
3.383000 	 1.365674 
3.384000 	 1.355248 
3.385000 	 1.344496 
3.386000 	 1.335047 
3.387000 	 1.324621 
3.388000 	 1.314520 
3.389000 	 1.304745 
3.390000 	 1.293667 
3.391000 	 1.283567 
3.392000 	 1.273466 
3.393000 	 1.264018 
3.394000 	 1.253917 
3.395000 	 1.243491 
3.396000 	 1.234042 
3.397000 	 1.224919 
3.398000 	 1.213841 
3.399000 	 1.204392 
3.400000 	 1.195595 
3.401000 	 1.185169 
3.402000 	 1.175720 
3.403000 	 1.165619 
3.404000 	 1.157148 
3.405000 	 1.148351 
3.406000 	 1.138576 
3.407000 	 1.129127 
3.408000 	 1.120004 
3.409000 	 1.111207 
3.410000 	 1.101107 
3.411000 	 1.092635 
3.412000 	 1.082535 
3.413000 	 1.074389 
3.414000 	 1.066244 
3.415000 	 1.056469 
3.416000 	 1.047997 
3.417000 	 1.039526 
3.418000 	 1.029751 
3.419000 	 1.021280 
3.420000 	 1.013460 
3.421000 	 1.005315 
3.422000 	 0.996843 
3.423000 	 0.988046 
3.424000 	 0.979249 
3.425000 	 0.971429 
3.426000 	 0.963610 
3.427000 	 0.954487 
3.428000 	 0.946667 
3.429000 	 0.938195 
3.430000 	 0.931679 
3.431000 	 0.923859 
3.432000 	 0.914410 
3.433000 	 0.907894 
3.434000 	 0.899748 
3.435000 	 0.892906 
3.436000 	 0.885412 
3.437000 	 0.876615 
3.438000 	 0.869773 
3.439000 	 0.862931 
3.440000 	 0.855111 
3.441000 	 0.847617 
3.442000 	 0.839797 
3.443000 	 0.833932 
3.444000 	 0.827090 
3.445000 	 0.819270 
3.446000 	 0.811776 
3.447000 	 0.805912 
3.448000 	 0.798744 
3.449000 	 0.791901 
3.450000 	 0.785385 
3.451000 	 0.778868 
3.452000 	 0.772678 
3.453000 	 0.766813 
3.454000 	 0.758667 
3.455000 	 0.752803 
3.456000 	 0.747264 
3.457000 	 0.741725 
3.458000 	 0.734231 
3.459000 	 0.727388 
3.460000 	 0.721524 
3.461000 	 0.716636 
3.462000 	 0.710446 
3.463000 	 0.703603 
3.464000 	 0.698716 
3.465000 	 0.693503 
3.466000 	 0.687312 
3.467000 	 0.681773 
3.468000 	 0.676886 
3.469000 	 0.671999 
3.470000 	 0.666134 
3.471000 	 0.660595 
3.472000 	 0.656033 
3.473000 	 0.650820 
3.474000 	 0.646259 
3.475000 	 0.640068 
3.476000 	 0.635507 
3.477000 	 0.631271 
3.478000 	 0.626709 
3.479000 	 0.621170 
3.480000 	 0.616609 
3.481000 	 0.612699 
3.482000 	 0.608789 
3.483000 	 0.604228 
3.484000 	 0.599666 
3.485000 	 0.596082 
3.486000 	 0.592172 
3.487000 	 0.586959 
3.488000 	 0.583049 
3.489000 	 0.579139 
3.490000 	 0.575555 
3.491000 	 0.571320 
3.492000 	 0.568387 
3.493000 	 0.564477 
3.494000 	 0.560568 
3.495000 	 0.558287 
3.496000 	 0.553725 
3.497000 	 0.551119 
3.498000 	 0.547209 
3.499000 	 0.545254 
3.500000 	 0.543299 
3.501000 	 0.537434 
3.502000 	 0.535153 
3.503000 	 0.533198 
3.504000 	 0.531244 
3.505000 	 0.527985 
3.506000 	 0.524401 
3.507000 	 0.522121 
3.508000 	 0.521469 
3.509000 	 0.517233 
3.510000 	 0.514301 
3.511000 	 0.512998 
3.512000 	 0.512020 
3.513000 	 0.508436 
3.514000 	 0.507133 
3.515000 	 0.504852 
3.516000 	 0.503549 
3.517000 	 0.503874 
3.518000 	 0.499313 
3.519000 	 0.498661 
3.520000 	 0.496381 
3.521000 	 0.496381 
3.522000 	 0.493448 
3.523000 	 0.492797 
3.524000 	 0.491493 
3.525000 	 0.491819 
3.526000 	 0.488887 
3.527000 	 0.488887 
3.528000 	 0.487583 
3.529000 	 0.487258 
3.530000 	 0.485628 
3.531000 	 0.485303 
3.532000 	 0.485303 
3.533000 	 0.484651 
3.534000 	 0.484325 
3.535000 	 0.483999 
3.536000 	 0.483348 
3.537000 	 0.483348 
3.538000 	 0.483348 
3.539000 	 0.483022 
3.540000 	 0.482696 
3.541000 	 0.484651 
3.542000 	 0.483348 
3.543000 	 0.483348 
3.544000 	 0.483674 
3.545000 	 0.485628 
3.546000 	 0.485628 
3.547000 	 0.485954 
3.548000 	 0.486606 
3.549000 	 0.487909 
3.550000 	 0.487583 
3.551000 	 0.489212 
3.552000 	 0.489538 
3.553000 	 0.491819 
3.554000 	 0.492797 
3.555000 	 0.493448 
3.556000 	 0.494751 
3.557000 	 0.496381 
3.558000 	 0.498661 
3.559000 	 0.499313 
3.560000 	 0.500942 
3.561000 	 0.501920 
3.562000 	 0.504852 
3.563000 	 0.507133 
3.564000 	 0.510065 
3.565000 	 0.510391 
3.566000 	 0.512020 
3.567000 	 0.514301 
3.568000 	 0.517885 
3.569000 	 0.518862 
3.570000 	 0.522446 
3.571000 	 0.524075 
3.572000 	 0.528311 
3.573000 	 0.529289 
3.574000 	 0.532873 
3.575000 	 0.535479 
3.576000 	 0.539715 
3.577000 	 0.541344 
3.578000 	 0.543299 
3.579000 	 0.547535 
3.580000 	 0.551445 
3.581000 	 0.555029 
3.582000 	 0.556984 
3.583000 	 0.560568 
3.584000 	 0.564152 
3.585000 	 0.568061 
3.586000 	 0.570342 
3.587000 	 0.575230 
3.588000 	 0.579139 
3.589000 	 0.583375 
3.590000 	 0.586308 
3.591000 	 0.590869 
3.592000 	 0.595105 
3.593000 	 0.599666 
3.594000 	 0.603576 
3.595000 	 0.607160 
3.596000 	 0.611722 
3.597000 	 0.616935 
3.598000 	 0.620845 
3.599000 	 0.625406 
3.600000 	 0.630293 
3.601000 	 0.635832 
3.602000 	 0.639742 
3.603000 	 0.645281 
3.604000 	 0.650169 
3.605000 	 0.655382 
3.606000 	 0.660595 
3.607000 	 0.664831 
3.608000 	 0.670044 
3.609000 	 0.675909 
3.610000 	 0.681448 
3.611000 	 0.686009 
3.612000 	 0.691874 
3.613000 	 0.697739 
3.614000 	 0.704581 
3.615000 	 0.709468 
3.616000 	 0.715007 
3.617000 	 0.720872 
3.618000 	 0.727388 
3.619000 	 0.732602 
3.620000 	 0.739118 
3.621000 	 0.745309 
3.622000 	 0.751825 
3.623000 	 0.758993 
3.624000 	 0.763881 
3.625000 	 0.770723 
3.626000 	 0.777565 
3.627000 	 0.783756 
3.628000 	 0.792553 
3.629000 	 0.796463 
3.630000 	 0.803305 
3.631000 	 0.811776 
3.632000 	 0.819270 
3.633000 	 0.824158 
3.634000 	 0.831652 
3.635000 	 0.839471 
3.636000 	 0.847291 
3.637000 	 0.853807 
3.638000 	 0.861301 
3.639000 	 0.868795 
3.640000 	 0.876941 
3.641000 	 0.882806 
3.642000 	 0.890625 
3.643000 	 0.898445 
3.644000 	 0.907242 
3.645000 	 0.914736 
3.646000 	 0.921253 
3.647000 	 0.928747 
3.648000 	 0.936892 
3.649000 	 0.946341 
3.650000 	 0.953183 
3.651000 	 0.961980 
3.652000 	 0.970452 
3.653000 	 0.978923 
3.654000 	 0.987069 
3.655000 	 0.994237 
3.656000 	 1.003034 
3.657000 	 1.012157 
3.658000 	 1.019977 
3.659000 	 1.028122 
3.660000 	 1.037245 
3.661000 	 1.045717 
3.662000 	 1.054840 
3.663000 	 1.062985 
3.664000 	 1.072434 
3.665000 	 1.082209 
3.666000 	 1.090680 
3.667000 	 1.098500 
3.668000 	 1.108275 
3.669000 	 1.118049 
3.670000 	 1.127824 
3.671000 	 1.135644 
3.672000 	 1.146070 
3.673000 	 1.154867 
3.674000 	 1.165619 
3.675000 	 1.173439 
3.676000 	 1.183214 
3.677000 	 1.193966 
3.678000 	 1.203089 
3.679000 	 1.212538 
3.680000 	 1.221987 
3.681000 	 1.231110 
3.682000 	 1.241862 
3.683000 	 1.251636 
3.684000 	 1.262388 
3.685000 	 1.271511 
3.686000 	 1.281612 
3.687000 	 1.292038 
3.688000 	 1.301813 
3.689000 	 1.312891 
3.690000 	 1.322666 
3.691000 	 1.333092 
3.692000 	 1.343518 
3.693000 	 1.352641 
3.694000 	 1.362742 
3.695000 	 1.374797 
3.696000 	 1.385549 
3.697000 	 1.394998 
3.698000 	 1.405099 
3.699000 	 1.416502 
3.700000 	 1.427906 
3.701000 	 1.437029 
3.702000 	 1.447781 
3.703000 	 1.459837 
3.704000 	 1.469611 
3.705000 	 1.481015 
3.706000 	 1.492745 
3.707000 	 1.502519 
3.708000 	 1.512946 
3.709000 	 1.525979 
3.710000 	 1.535753 
3.711000 	 1.546831 
3.712000 	 1.558235 
3.713000 	 1.569313 
3.714000 	 1.580065 
3.715000 	 1.591795 
3.716000 	 1.603198 
3.717000 	 1.614602 
3.718000 	 1.625029 
3.719000 	 1.637410 
3.720000 	 1.648488 
3.721000 	 1.659566 
3.722000 	 1.671295 
3.723000 	 1.682047 
3.724000 	 1.694429 
3.725000 	 1.706484 
3.726000 	 1.717236 
3.727000 	 1.728640 
3.728000 	 1.740370 
3.729000 	 1.752425 
3.730000 	 1.764806 
3.731000 	 1.774581 
3.732000 	 1.787614 
3.733000 	 1.799669 
3.734000 	 1.812050 
3.735000 	 1.822803 
3.736000 	 1.834532 
3.737000 	 1.846262 
3.738000 	 1.859295 
3.739000 	 1.870698 
3.740000 	 1.882102 
3.741000 	 1.894158 
3.742000 	 1.906213 
3.743000 	 1.919572 
3.744000 	 1.930650 
3.745000 	 1.942379 
3.746000 	 1.954761 
3.747000 	 1.967142 
3.748000 	 1.978871 
3.749000 	 1.991253 
3.750000 	 2.002982 
3.751000 	 2.015363 
3.752000 	 2.027745 
3.753000 	 2.039474 
3.754000 	 2.053159 
3.755000 	 2.064563 
3.756000 	 2.078573 
3.757000 	 2.089651 
3.758000 	 2.101706 
3.759000 	 2.114413 
3.760000 	 2.126469 
3.761000 	 2.139828 
3.762000 	 2.151231 
3.763000 	 2.163613 
3.764000 	 2.175668 
3.765000 	 2.188375 
3.766000 	 2.200430 
3.767000 	 2.213138 
3.768000 	 2.225193 
3.769000 	 2.237900 
3.770000 	 2.250607 
3.771000 	 2.263640 
3.772000 	 2.275695 
3.773000 	 2.288077 
3.774000 	 2.300784 
3.775000 	 2.312839 
3.776000 	 2.325220 
3.777000 	 2.337927 
3.778000 	 2.350634 
3.779000 	 2.362690 
3.780000 	 2.376049 
3.781000 	 2.388756 
3.782000 	 2.400811 
3.783000 	 2.413844 
3.784000 	 2.426551 
3.785000 	 2.438606 
3.786000 	 2.451314 
3.787000 	 2.464021 
3.788000 	 2.476076 
3.789000 	 2.488457 
3.790000 	 2.501816 
3.791000 	 2.513546 
3.792000 	 2.526904 
3.793000 	 2.539611 
3.794000 	 2.551993 
3.795000 	 2.564374 
3.796000 	 2.577081 
3.797000 	 2.588810 
3.798000 	 2.602169 
3.799000 	 2.614225 
3.800000 	 2.626932 
3.801000 	 2.638987 
3.802000 	 2.652020 
3.803000 	 2.664727 
3.804000 	 2.677434 
3.805000 	 2.690467 
3.806000 	 2.702848 
3.807000 	 2.715555 
3.808000 	 2.727285 
3.809000 	 2.739992 
3.810000 	 2.751722 
3.811000 	 2.765406 
3.812000 	 2.776810 
3.813000 	 2.789843 
3.814000 	 2.801898 
3.815000 	 2.813954 
3.816000 	 2.827638 
3.817000 	 2.839368 
3.818000 	 2.851423 
3.819000 	 2.863479 
3.820000 	 2.875534 
3.821000 	 2.888567 
3.822000 	 2.900622 
3.823000 	 2.913329 
3.824000 	 2.925059 
3.825000 	 2.937440 
3.826000 	 2.949821 
3.827000 	 2.962528 
3.828000 	 2.973932 
3.829000 	 2.986639 
3.830000 	 2.999021 
3.831000 	 3.010750 
3.832000 	 3.023457 
3.833000 	 3.035187 
3.834000 	 3.046265 
3.835000 	 3.059623 
3.836000 	 3.071027 
3.837000 	 3.083408 
3.838000 	 3.094812 
3.839000 	 3.106868 
3.840000 	 3.118597 
3.841000 	 3.130001 
3.842000 	 3.142708 
3.843000 	 3.154438 
3.844000 	 3.166167 
3.845000 	 3.178223 
3.846000 	 3.189952 
3.847000 	 3.202334 
3.848000 	 3.213086 
3.849000 	 3.225141 
3.850000 	 3.236545 
3.851000 	 3.248275 
3.852000 	 3.260656 
3.853000 	 3.270430 
3.854000 	 3.283463 
3.855000 	 3.293890 
3.856000 	 3.305945 
3.857000 	 3.317675 
3.858000 	 3.328753 
3.859000 	 3.340156 
3.860000 	 3.351234 
3.861000 	 3.362638 
3.862000 	 3.373716 
3.863000 	 3.385771 
3.864000 	 3.396849 
3.865000 	 3.407602 
3.866000 	 3.419005 
3.867000 	 3.428780 
3.868000 	 3.441161 
3.869000 	 3.452239 
3.870000 	 3.463643 
3.871000 	 3.474069 
3.872000 	 3.485473 
3.873000 	 3.495899 
3.874000 	 3.506651 
3.875000 	 3.517078 
3.876000 	 3.527830 
3.877000 	 3.538256 
3.878000 	 3.549660 
3.879000 	 3.559760 
3.880000 	 3.570513 
3.881000 	 3.581265 
3.882000 	 3.591365 
3.883000 	 3.601466 
3.884000 	 3.612218 
3.885000 	 3.622970 
3.886000 	 3.632419 
3.887000 	 3.643823 
3.888000 	 3.652946 
3.889000 	 3.664675 
3.890000 	 3.674450 
3.891000 	 3.683573 
3.892000 	 3.693348 
3.893000 	 3.704100 
3.894000 	 3.713223 
3.895000 	 3.723323 
3.896000 	 3.732446 
3.897000 	 3.743850 
3.898000 	 3.753299 
3.899000 	 3.762422 
3.900000 	 3.771545 
3.901000 	 3.781320 
3.902000 	 3.792072 
3.903000 	 3.800543 
3.904000 	 3.810644 
3.905000 	 3.819767 
3.906000 	 3.828890 
3.907000 	 3.838664 
3.908000 	 3.847136 
3.909000 	 3.857562 
3.910000 	 3.866033 
3.911000 	 3.874505 
3.912000 	 3.884605 
3.913000 	 3.892751 
3.914000 	 3.901874 
3.915000 	 3.910997 
3.916000 	 3.919468 
3.917000 	 3.928591 
3.918000 	 3.937063 
3.919000 	 3.945534 
3.920000 	 3.954005 
3.921000 	 3.963128 
3.922000 	 3.970622 
3.923000 	 3.979745 
3.924000 	 3.987239 
3.925000 	 3.996362 
3.926000 	 4.004508 
3.927000 	 4.012002 
3.928000 	 4.020147 
3.929000 	 4.027641 
3.930000 	 4.035787 
3.931000 	 4.042955 
3.932000 	 4.052078 
3.933000 	 4.060223 
3.934000 	 4.068043 
3.935000 	 4.074559 
3.936000 	 4.083357 
3.937000 	 4.090525 
3.938000 	 4.098019 
3.939000 	 4.104209 
3.940000 	 4.113984 
3.941000 	 4.119523 
3.942000 	 4.127343 
3.943000 	 4.133533 
3.944000 	 4.140701 
3.945000 	 4.148195 
3.946000 	 4.154712 
3.947000 	 4.160902 
3.948000 	 4.167093 
3.949000 	 4.176216 
3.950000 	 4.182407 
3.951000 	 4.188597 
3.952000 	 4.194462 
3.953000 	 4.201956 
3.954000 	 4.208147 
3.955000 	 4.214989 
3.956000 	 4.219550 
3.957000 	 4.226393 
3.958000 	 4.233887 
3.959000 	 4.239100 
3.960000 	 4.244639 
3.961000 	 4.250829 
3.962000 	 4.257020 
3.963000 	 4.262885 
3.964000 	 4.269075 
3.965000 	 4.273637 
3.966000 	 4.279827 
3.967000 	 4.286344 
3.968000 	 4.290254 
3.969000 	 4.295793 
3.970000 	 4.301332 
3.971000 	 4.306545 
3.972000 	 4.311432 
3.973000 	 4.316320 
3.974000 	 4.322184 
3.975000 	 4.327397 
3.976000 	 4.330656 
3.977000 	 4.335543 
3.978000 	 4.340756 
3.979000 	 4.345318 
3.980000 	 4.350205 
3.981000 	 4.354441 
3.982000 	 4.358676 
3.983000 	 4.362912 
3.984000 	 4.368125 
3.985000 	 4.372361 
3.986000 	 4.374968 
3.987000 	 4.379203 
3.988000 	 4.383765 
3.989000 	 4.387349 
3.990000 	 4.391259 
3.991000 	 4.395168 
3.992000 	 4.399078 
3.993000 	 4.403640 
3.994000 	 4.406246 
3.995000 	 4.407876 
3.996000 	 4.412437 
3.997000 	 4.415369 
3.998000 	 4.419279 
3.999000 	 4.421560 
4.000000 	 4.426447 
4.001000 	 4.428402 
4.002000 	 4.431335 
4.003000 	 4.432964 
4.004000 	 4.437525 
4.005000 	 4.439480 
4.006000 	 4.442087 
4.007000 	 4.444042 
4.008000 	 4.447300 
4.009000 	 4.449907 
4.010000 	 4.452187 
4.011000 	 4.454142 
4.012000 	 4.455771 
4.013000 	 4.458378 
4.014000 	 4.460007 
4.015000 	 4.461962 
4.016000 	 4.463591 
4.017000 	 4.465546 
4.018000 	 4.467175 
4.019000 	 4.469130 
4.020000 	 4.470433 
4.021000 	 4.471737 
4.022000 	 4.473366 
4.023000 	 4.473040 
4.024000 	 4.474995 
4.025000 	 4.477276 
4.026000 	 4.477601 
4.027000 	 4.478905 
4.028000 	 4.479231 
4.029000 	 4.479882 
4.030000 	 4.481837 
4.031000 	 4.481186 
4.032000 	 4.482163 
4.033000 	 4.483140 
4.034000 	 4.483792 
4.035000 	 4.483466 
4.036000 	 4.483792 
4.037000 	 4.484118 
4.038000 	 4.483140 
4.039000 	 4.484118 
4.040000 	 4.482815 
4.041000 	 4.484444 
4.042000 	 4.483140 
4.043000 	 4.483792 
4.044000 	 4.482489 
4.045000 	 4.482163 
4.046000 	 4.482163 
4.047000 	 4.481511 
4.048000 	 4.481186 
4.049000 	 4.479556 
4.050000 	 4.479882 
4.051000 	 4.478253 
4.052000 	 4.477276 
4.053000 	 4.475647 
4.054000 	 4.474017 
4.055000 	 4.474017 
4.056000 	 4.471737 
4.057000 	 4.470759 
4.058000 	 4.469130 
4.059000 	 4.466198 
4.060000 	 4.466198 
4.061000 	 4.464569 
4.062000 	 4.462940 
4.063000 	 4.459030 
4.064000 	 4.459030 
4.065000 	 4.455771 
4.066000 	 4.454468 
4.067000 	 4.452187 
4.068000 	 4.450558 
4.069000 	 4.447300 
4.070000 	 4.445345 
4.071000 	 4.442413 
4.072000 	 4.440132 
4.073000 	 4.437525 
4.074000 	 4.435570 
4.075000 	 4.431661 
4.076000 	 4.427099 
4.077000 	 4.426773 
4.078000 	 4.422863 
4.079000 	 4.419931 
4.080000 	 4.415695 
4.081000 	 4.413740 
4.082000 	 4.409830 
4.083000 	 4.406246 
4.084000 	 4.402662 
4.085000 	 4.399730 
4.086000 	 4.396472 
4.087000 	 4.391259 
4.088000 	 4.388000 
4.089000 	 4.386045 
4.090000 	 4.381484 
4.091000 	 4.376271 
4.092000 	 4.372035 
4.093000 	 4.368451 
4.094000 	 4.363564 
4.095000 	 4.359002 
4.096000 	 4.355418 
4.097000 	 4.350531 
4.098000 	 4.346947 
4.099000 	 4.341734 
4.100000 	 4.336846 
4.101000 	 4.332611 
4.102000 	 4.328049 
4.103000 	 4.322836 
4.104000 	 4.317623 
4.105000 	 4.312410 
4.106000 	 4.307197 
4.107000 	 4.302961 
4.108000 	 4.296444 
4.109000 	 4.292209 
4.110000 	 4.285366 
4.111000 	 4.280805 
4.112000 	 4.274614 
4.113000 	 4.269727 
4.114000 	 4.264188 
4.115000 	 4.258323 
4.116000 	 4.251155 
4.117000 	 4.246268 
4.118000 	 4.240077 
4.119000 	 4.234864 
4.120000 	 4.227696 
4.121000 	 4.222157 
4.122000 	 4.215315 
4.123000 	 4.208147 
4.124000 	 4.203259 
4.125000 	 4.197069 
4.126000 	 4.189901 
4.127000 	 4.182407 
4.128000 	 4.176868 
4.129000 	 4.171003 
4.130000 	 4.163183 
4.131000 	 4.156341 
4.132000 	 4.149824 
4.133000 	 4.142331 
4.134000 	 4.135814 
4.135000 	 4.127994 
4.136000 	 4.121804 
4.137000 	 4.113984 
4.138000 	 4.106490 
4.139000 	 4.098345 
4.140000 	 4.090525 
4.141000 	 4.084334 
4.142000 	 4.076514 
4.143000 	 4.067717 
4.144000 	 4.060875 
4.145000 	 4.053381 
4.146000 	 4.045235 
4.147000 	 4.036764 
4.148000 	 4.029270 
4.149000 	 4.022102 
4.150000 	 4.013305 
4.151000 	 4.005485 
4.152000 	 3.997340 
4.153000 	 3.989846 
4.154000 	 3.981700 
4.155000 	 3.972577 
4.156000 	 3.963780 
4.157000 	 3.955634 
4.158000 	 3.946837 
4.159000 	 3.939017 
4.160000 	 3.929569 
4.161000 	 3.922075 
4.162000 	 3.911323 
4.163000 	 3.902851 
4.164000 	 3.895683 
4.165000 	 3.885908 
4.166000 	 3.876460 
4.167000 	 3.867662 
4.168000 	 3.858865 
4.169000 	 3.849742 
4.170000 	 3.839642 
4.171000 	 3.830845 
4.172000 	 3.822373 
4.173000 	 3.812598 
4.174000 	 3.801846 
4.175000 	 3.793049 
4.176000 	 3.784252 
4.177000 	 3.774477 
4.178000 	 3.764703 
4.179000 	 3.754602 
4.180000 	 3.744502 
4.181000 	 3.735379 
4.182000 	 3.724952 
4.183000 	 3.715829 
4.184000 	 3.706055 
4.185000 	 3.696280 
4.186000 	 3.686505 
4.187000 	 3.675427 
4.188000 	 3.666304 
4.189000 	 3.655878 
4.190000 	 3.646429 
4.191000 	 3.635025 
4.192000 	 3.624925 
4.193000 	 3.615150 
4.194000 	 3.603746 
4.195000 	 3.593646 
4.196000 	 3.583871 
4.197000 	 3.572142 
4.198000 	 3.562367 
4.199000 	 3.550963 
4.200000 	 3.540211 
4.201000 	 3.529785 
4.202000 	 3.520010 
4.203000 	 3.508281 
4.204000 	 3.497528 
4.205000 	 3.486451 
4.206000 	 3.476350 
4.207000 	 3.465272 
4.208000 	 3.454520 
4.209000 	 3.443116 
4.210000 	 3.431061 
4.211000 	 3.420960 
4.212000 	 3.409231 
4.213000 	 3.398479 
4.214000 	 3.386749 
4.215000 	 3.375997 
4.216000 	 3.364919 
4.217000 	 3.353515 
4.218000 	 3.342437 
4.219000 	 3.331033 
4.220000 	 3.319304 
4.221000 	 3.308552 
4.222000 	 3.296496 
4.223000 	 3.285418 
4.224000 	 3.273689 
4.225000 	 3.261959 
4.226000 	 3.250229 
4.227000 	 3.238500 
4.228000 	 3.227422 
4.229000 	 3.214715 
4.230000 	 3.203637 
4.231000 	 3.191907 
4.232000 	 3.180504 
4.233000 	 3.168448 
4.234000 	 3.156718 
4.235000 	 3.144989 
4.236000 	 3.132608 
4.237000 	 3.120878 
4.238000 	 3.108497 
4.239000 	 3.097093 
4.240000 	 3.084712 
4.241000 	 3.073308 
4.242000 	 3.060275 
4.243000 	 3.048871 
4.244000 	 3.036490 
4.245000 	 3.025738 
4.246000 	 3.013031 
4.247000 	 3.000975 
4.248000 	 2.988268 
4.249000 	 2.975887 
4.250000 	 2.964158 
4.251000 	 2.952102 
4.252000 	 2.940373 
4.253000 	 2.927014 
4.254000 	 2.915284 
4.255000 	 2.902577 
4.256000 	 2.890848 
4.257000 	 2.878466 
4.258000 	 2.865759 
4.259000 	 2.853704 
4.260000 	 2.841323 
4.261000 	 2.828941 
4.262000 	 2.815909 
4.263000 	 2.804179 
4.264000 	 2.791146 
4.265000 	 2.779416 
4.266000 	 2.767361 
4.267000 	 2.754654 
4.268000 	 2.741947 
4.269000 	 2.729566 
4.270000 	 2.716859 
4.271000 	 2.704803 
4.272000 	 2.692096 
4.273000 	 2.679063 
4.274000 	 2.666682 
4.275000 	 2.654301 
4.276000 	 2.642245 
4.277000 	 2.629212 
4.278000 	 2.616505 
4.279000 	 2.604450 
4.280000 	 2.591417 
4.281000 	 2.578384 
4.282000 	 2.566980 
4.283000 	 2.553947 
4.284000 	 2.541240 
4.285000 	 2.529185 
4.286000 	 2.516152 
4.287000 	 2.504097 
4.288000 	 2.491715 
4.289000 	 2.479660 
4.290000 	 2.465650 
4.291000 	 2.452943 
4.292000 	 2.440561 
4.293000 	 2.428832 
4.294000 	 2.415147 
4.295000 	 2.403418 
4.296000 	 2.389407 
4.297000 	 2.378655 
4.298000 	 2.366274 
4.299000 	 2.353567 
4.300000 	 2.339882 
4.301000 	 2.327501 
4.302000 	 2.315120 
4.303000 	 2.302739 
4.304000 	 2.290683 
4.305000 	 2.277976 
4.306000 	 2.265595 
4.307000 	 2.252888 
4.308000 	 2.240507 
4.309000 	 2.227800 
4.310000 	 2.215418 
4.311000 	 2.202385 
4.312000 	 2.190656 
4.313000 	 2.177623 
4.314000 	 2.165893 
4.315000 	 2.154164 
4.316000 	 2.141131 
4.317000 	 2.128098 
4.318000 	 2.117672 
4.319000 	 2.104313 
4.320000 	 2.090628 
4.321000 	 2.078899 
4.322000 	 2.066192 
4.323000 	 2.055114 
4.324000 	 2.042081 
4.325000 	 2.029700 
4.326000 	 2.017970 
4.327000 	 2.006240 
4.328000 	 1.993859 
4.329000 	 1.981152 
4.330000 	 1.968119 
4.331000 	 1.958019 
4.332000 	 1.944986 
4.333000 	 1.933256 
4.334000 	 1.920223 
4.335000 	 1.908494 
4.336000 	 1.896113 
4.337000 	 1.884057 
4.338000 	 1.872653 
4.339000 	 1.859946 
4.340000 	 1.848868 
4.341000 	 1.837139 
4.342000 	 1.824758 
4.343000 	 1.813354 
4.344000 	 1.801298 
4.345000 	 1.789243 
4.346000 	 1.777839 
4.347000 	 1.766435 
4.348000 	 1.754380 
4.349000 	 1.742976 
4.350000 	 1.730921 
4.351000 	 1.719191 
4.352000 	 1.707462 
4.353000 	 1.696058 
4.354000 	 1.684654 
4.355000 	 1.672599 
4.356000 	 1.660869 
4.357000 	 1.650768 
4.358000 	 1.639691 
4.359000 	 1.627635 
4.360000 	 1.616557 
4.361000 	 1.605153 
4.362000 	 1.594727 
4.363000 	 1.581043 
4.364000 	 1.571594 
4.365000 	 1.558887 
4.366000 	 1.549438 
4.367000 	 1.537057 
4.368000 	 1.526304 
4.369000 	 1.515552 
4.370000 	 1.504800 
4.371000 	 1.493396 
4.372000 	 1.482970 
4.373000 	 1.471892 
4.374000 	 1.462443 
4.375000 	 1.449410 
4.376000 	 1.439636 
4.377000 	 1.428884 
4.378000 	 1.417806 
4.379000 	 1.407379 
4.380000 	 1.396953 
4.381000 	 1.386527 
4.382000 	 1.376752 
4.383000 	 1.366000 
4.384000 	 1.354596 
4.385000 	 1.345147 
4.386000 	 1.335047 
4.387000 	 1.324621 
4.388000 	 1.313868 
4.389000 	 1.303442 
4.390000 	 1.293667 
4.391000 	 1.284544 
4.392000 	 1.273141 
4.393000 	 1.263366 
4.394000 	 1.253265 
4.395000 	 1.244142 
4.396000 	 1.233716 
4.397000 	 1.223290 
4.398000 	 1.213841 
4.399000 	 1.205044 
4.400000 	 1.194943 
4.401000 	 1.184843 
4.402000 	 1.176046 
4.403000 	 1.165945 
4.404000 	 1.157148 
4.405000 	 1.148025 
4.406000 	 1.138250 
4.407000 	 1.129127 
4.408000 	 1.119027 
4.409000 	 1.110555 
4.410000 	 1.101107 
4.411000 	 1.092309 
4.412000 	 1.083186 
4.413000 	 1.074063 
4.414000 	 1.065266 
4.415000 	 1.056143 
4.416000 	 1.048323 
4.417000 	 1.039852 
4.418000 	 1.029751 
4.419000 	 1.022583 
4.420000 	 1.013460 
4.421000 	 1.004337 
4.422000 	 0.996192 
4.423000 	 0.988372 
4.424000 	 0.978923 
4.425000 	 0.971755 
4.426000 	 0.964913 
4.427000 	 0.954812 
4.428000 	 0.947318 
4.429000 	 0.938847 
4.430000 	 0.932331 
4.431000 	 0.923533 
4.432000 	 0.914736 
4.433000 	 0.907242 
4.434000 	 0.900726 
4.435000 	 0.891929 
4.436000 	 0.883457 
4.437000 	 0.876941 
4.438000 	 0.870750 
4.439000 	 0.861627 
4.440000 	 0.854785 
4.441000 	 0.846965 
4.442000 	 0.841100 
4.443000 	 0.834584 
4.444000 	 0.826113 
4.445000 	 0.819270 
4.446000 	 0.811776 
4.447000 	 0.805586 
4.448000 	 0.798418 
4.449000 	 0.792879 
4.450000 	 0.785059 
4.451000 	 0.778868 
4.452000 	 0.771700 
4.453000 	 0.765510 
4.454000 	 0.759319 
4.455000 	 0.753454 
4.456000 	 0.745960 
4.457000 	 0.739444 
4.458000 	 0.733905 
4.459000 	 0.728366 
4.460000 	 0.722175 
4.461000 	 0.716636 
4.462000 	 0.709794 
4.463000 	 0.704255 
4.464000 	 0.698390 
4.465000 	 0.693177 
4.466000 	 0.687964 
4.467000 	 0.682751 
4.468000 	 0.676886 
4.469000 	 0.670695 
4.470000 	 0.665156 
4.471000 	 0.659943 
4.472000 	 0.656359 
4.473000 	 0.650494 
4.474000 	 0.645281 
4.475000 	 0.640068 
4.476000 	 0.636484 
4.477000 	 0.631597 
4.478000 	 0.626384 
4.479000 	 0.621170 
4.480000 	 0.617261 
4.481000 	 0.612373 
4.482000 	 0.607812 
4.483000 	 0.603902 
4.484000 	 0.599340 
4.485000 	 0.596082 
4.486000 	 0.590543 
4.487000 	 0.587285 
4.488000 	 0.582723 
4.489000 	 0.579465 
4.490000 	 0.577836 
4.491000 	 0.572623 
4.492000 	 0.568713 
4.493000 	 0.564477 
4.494000 	 0.562197 
4.495000 	 0.557961 
4.496000 	 0.553725 
4.497000 	 0.551119 
4.498000 	 0.548186 
4.499000 	 0.544602 
4.500000 	 0.541344 
4.501000 	 0.538412 
4.502000 	 0.536131 
4.503000 	 0.532873 
4.504000 	 0.529614 
4.505000 	 0.527334 
4.506000 	 0.525053 
4.507000 	 0.524075 
4.508000 	 0.519188 
4.509000 	 0.517885 
4.510000 	 0.515930 
4.511000 	 0.514301 
4.512000 	 0.510717 
4.513000 	 0.509088 
4.514000 	 0.507784 
4.515000 	 0.506155 
4.516000 	 0.502571 
4.517000 	 0.501594 
4.518000 	 0.500942 
4.519000 	 0.499965 
4.520000 	 0.496381 
4.521000 	 0.495403 
4.522000 	 0.493774 
4.523000 	 0.493774 
4.524000 	 0.490842 
4.525000 	 0.490842 
4.526000 	 0.489212 
4.527000 	 0.488561 
4.528000 	 0.488561 
4.529000 	 0.486280 
4.530000 	 0.486280 
4.531000 	 0.485628 
4.532000 	 0.485628 
4.533000 	 0.483999 
4.534000 	 0.483999 
4.535000 	 0.483348 
4.536000 	 0.483022 
4.537000 	 0.483022 
4.538000 	 0.482370 
4.539000 	 0.483022 
4.540000 	 0.483674 
4.541000 	 0.484651 
4.542000 	 0.484325 
4.543000 	 0.483674 
4.544000 	 0.484325 
4.545000 	 0.484977 
4.546000 	 0.484977 
4.547000 	 0.485628 
4.548000 	 0.485954 
4.549000 	 0.487583 
4.550000 	 0.487909 
4.551000 	 0.488561 
4.552000 	 0.490516 
4.553000 	 0.491493 
4.554000 	 0.494751 
4.555000 	 0.493448 
4.556000 	 0.494751 
4.557000 	 0.496706 
4.558000 	 0.498987 
4.559000 	 0.499313 
4.560000 	 0.501594 
4.561000 	 0.502245 
4.562000 	 0.505178 
4.563000 	 0.506481 
4.564000 	 0.508110 
4.565000 	 0.509739 
4.566000 	 0.513975 
4.567000 	 0.514627 
4.568000 	 0.516907 
4.569000 	 0.519840 
4.570000 	 0.522446 
4.571000 	 0.526030 
4.572000 	 0.526682 
4.573000 	 0.530592 
4.574000 	 0.532873 
4.575000 	 0.535479 
4.576000 	 0.537434 
4.577000 	 0.541018 
4.578000 	 0.544928 
4.579000 	 0.547860 
4.580000 	 0.550467 
4.581000 	 0.553725 
4.582000 	 0.556984 
4.583000 	 0.561219 
4.584000 	 0.563826 
4.585000 	 0.567084 
4.586000 	 0.571320 
4.587000 	 0.575555 
4.588000 	 0.578488 
4.589000 	 0.582072 
4.590000 	 0.586308 
4.591000 	 0.591195 
4.592000 	 0.595105 
4.593000 	 0.598689 
4.594000 	 0.602924 
4.595000 	 0.607812 
4.596000 	 0.612047 
4.597000 	 0.616609 
4.598000 	 0.621170 
4.599000 	 0.626709 
4.600000 	 0.630619 
4.601000 	 0.636158 
4.602000 	 0.638765 
4.603000 	 0.644955 
4.604000 	 0.649843 
4.605000 	 0.654730 
4.606000 	 0.660921 
4.607000 	 0.665156 
4.608000 	 0.670370 
4.609000 	 0.676886 
4.610000 	 0.681448 
4.611000 	 0.686009 
4.612000 	 0.691222 
4.613000 	 0.697739 
4.614000 	 0.703929 
4.615000 	 0.709142 
4.616000 	 0.715333 
4.617000 	 0.721850 
4.618000 	 0.729018 
4.619000 	 0.732927 
4.620000 	 0.739118 
4.621000 	 0.744983 
4.622000 	 0.752803 
4.623000 	 0.758342 
4.624000 	 0.764532 
4.625000 	 0.771374 
4.626000 	 0.778543 
4.627000 	 0.784407 
4.628000 	 0.790598 
4.629000 	 0.797440 
4.630000 	 0.804608 
4.631000 	 0.811451 
4.632000 	 0.817967 
4.633000 	 0.825135 
4.634000 	 0.833281 
4.635000 	 0.839471 
4.636000 	 0.846314 
4.637000 	 0.853807 
4.638000 	 0.861301 
4.639000 	 0.869121 
4.640000 	 0.875963 
4.641000 	 0.884109 
4.642000 	 0.890951 
4.643000 	 0.898771 
4.644000 	 0.906591 
4.645000 	 0.913433 
4.646000 	 0.922556 
4.647000 	 0.931027 
4.648000 	 0.937218 
4.649000 	 0.946341 
4.650000 	 0.954487 
4.651000 	 0.961329 
4.652000 	 0.970778 
4.653000 	 0.978597 
4.654000 	 0.987395 
4.655000 	 0.995214 
4.656000 	 1.004012 
4.657000 	 1.012483 
4.658000 	 1.020303 
4.659000 	 1.029100 
4.660000 	 1.037571 
4.661000 	 1.045717 
4.662000 	 1.055166 
4.663000 	 1.064289 
4.664000 	 1.072434 
4.665000 	 1.081557 
4.666000 	 1.090680 
4.667000 	 1.099152 
4.668000 	 1.108926 
4.669000 	 1.118701 
4.670000 	 1.127824 
4.671000 	 1.137273 
4.672000 	 1.146070 
4.673000 	 1.156170 
4.674000 	 1.164316 
4.675000 	 1.174091 
4.676000 	 1.183865 
4.677000 	 1.193640 
4.678000 	 1.202437 
4.679000 	 1.212864 
4.680000 	 1.221987 
4.681000 	 1.232739 
4.682000 	 1.242513 
4.683000 	 1.251636 
4.684000 	 1.262714 
4.685000 	 1.271186 
4.686000 	 1.282264 
4.687000 	 1.291387 
4.688000 	 1.302139 
4.689000 	 1.311913 
4.690000 	 1.323317 
4.691000 	 1.332440 
4.692000 	 1.342867 
4.693000 	 1.352641 
4.694000 	 1.363719 
4.695000 	 1.373494 
4.696000 	 1.385223 
4.697000 	 1.395324 
4.698000 	 1.405424 
4.699000 	 1.416177 
4.700000 	 1.426929 
4.701000 	 1.437681 
4.702000 	 1.448433 
4.703000 	 1.459837 
4.704000 	 1.469937 
4.705000 	 1.480689 
4.706000 	 1.492419 
4.707000 	 1.502845 
4.708000 	 1.513923 
4.709000 	 1.524349 
4.710000 	 1.535753 
4.711000 	 1.546180 
4.712000 	 1.558235 
4.713000 	 1.568661 
4.714000 	 1.580065 
4.715000 	 1.592120 
4.716000 	 1.602221 
4.717000 	 1.614276 
4.718000 	 1.625680 
4.719000 	 1.636758 
4.720000 	 1.648162 
4.721000 	 1.659240 
4.722000 	 1.670318 
4.723000 	 1.683677 
4.724000 	 1.693777 
4.725000 	 1.705507 
4.726000 	 1.717236 
4.727000 	 1.728966 
4.728000 	 1.740370 
4.729000 	 1.752751 
4.730000 	 1.763177 
4.731000 	 1.775884 
4.732000 	 1.787288 
4.733000 	 1.798366 
4.734000 	 1.811073 
4.735000 	 1.822803 
4.736000 	 1.834858 
4.737000 	 1.847239 
4.738000 	 1.857340 
4.739000 	 1.870373 
4.740000 	 1.882428 
4.741000 	 1.894158 
4.742000 	 1.906213 
4.743000 	 1.919246 
4.744000 	 1.931301 
4.745000 	 1.942379 
4.746000 	 1.955412 
4.747000 	 1.967468 
4.748000 	 1.979849 
4.749000 	 1.991578 
4.750000 	 2.003308 
4.751000 	 2.015689 
4.752000 	 2.028071 
4.753000 	 2.041755 
4.754000 	 2.051856 
4.755000 	 2.065214 
4.756000 	 2.077270 
4.757000 	 2.089651 
4.758000 	 2.101706 
4.759000 	 2.114413 
4.760000 	 2.126143 
4.761000 	 2.138850 
4.762000 	 2.151231 
4.763000 	 2.163938 
4.764000 	 2.175994 
4.765000 	 2.189027 
4.766000 	 2.201408 
4.767000 	 2.213463 
4.768000 	 2.225845 
4.769000 	 2.237574 
4.770000 	 2.250281 
4.771000 	 2.263640 
4.772000 	 2.276021 
4.773000 	 2.288728 
4.774000 	 2.300784 
4.775000 	 2.313817 
4.776000 	 2.325872 
4.777000 	 2.337927 
4.778000 	 2.350634 
4.779000 	 2.363993 
4.780000 	 2.375723 
4.781000 	 2.388756 
4.782000 	 2.400811 
4.783000 	 2.414496 
4.784000 	 2.425248 
4.785000 	 2.438281 
4.786000 	 2.451965 
4.787000 	 2.462717 
4.788000 	 2.475424 
4.789000 	 2.488457 
4.790000 	 2.500838 
4.791000 	 2.514849 
4.792000 	 2.527556 
4.793000 	 2.538960 
4.794000 	 2.552644 
4.795000 	 2.564700 
4.796000 	 2.577081 
4.797000 	 2.589462 
4.798000 	 2.603147 
4.799000 	 2.614550 
4.800000 	 2.626606 
4.801000 	 2.640290 
4.802000 	 2.652672 
4.803000 	 2.664075 
4.804000 	 2.677434 
4.805000 	 2.690141 
4.806000 	 2.702848 
4.807000 	 2.715229 
4.808000 	 2.727611 
4.809000 	 2.739992 
4.810000 	 2.752047 
4.811000 	 2.766058 
4.812000 	 2.777136 
4.813000 	 2.789843 
4.814000 	 2.801898 
4.815000 	 2.814605 
4.816000 	 2.826335 
4.817000 	 2.839368 
4.818000 	 2.851749 
4.819000 	 2.864130 
4.820000 	 2.876186 
4.821000 	 2.888893 
4.822000 	 2.901274 
4.823000 	 2.913329 
4.824000 	 2.924733 
4.825000 	 2.937440 
4.826000 	 2.949821 
4.827000 	 2.961551 
4.828000 	 2.974910 
4.829000 	 2.986313 
4.830000 	 2.998043 
4.831000 	 3.011402 
4.832000 	 3.023457 
4.833000 	 3.034209 
4.834000 	 3.046265 
4.835000 	 3.057994 
4.836000 	 3.070376 
4.837000 	 3.082757 
4.838000 	 3.096441 
4.839000 	 3.107845 
4.840000 	 3.118271 
4.841000 	 3.130979 
4.842000 	 3.143034 
4.843000 	 3.155741 
4.844000 	 3.166493 
4.845000 	 3.177897 
4.846000 	 3.189952 
4.847000 	 3.201356 
4.848000 	 3.213086 
4.849000 	 3.225141 
4.850000 	 3.236545 
4.851000 	 3.248600 
4.852000 	 3.260004 
4.853000 	 3.272385 
4.854000 	 3.282812 
4.855000 	 3.295193 
4.856000 	 3.306271 
4.857000 	 3.316697 
4.858000 	 3.329404 
4.859000 	 3.340482 
4.860000 	 3.351234 
4.861000 	 3.363290 
4.862000 	 3.374368 
4.863000 	 3.385771 
4.864000 	 3.396524 
4.865000 	 3.407927 
4.866000 	 3.418354 
4.867000 	 3.429757 
4.868000 	 3.440510 
4.869000 	 3.452239 
4.870000 	 3.462991 
4.871000 	 3.474395 
4.872000 	 3.484496 
4.873000 	 3.494922 
4.874000 	 3.506326 
4.875000 	 3.518055 
4.876000 	 3.527178 
4.877000 	 3.538582 
4.878000 	 3.548683 
4.879000 	 3.560738 
4.880000 	 3.571164 
4.881000 	 3.580939 
4.882000 	 3.591039 
4.883000 	 3.601792 
4.884000 	 3.612218 
4.885000 	 3.622644 
4.886000 	 3.632419 
4.887000 	 3.644800 
4.888000 	 3.652620 
4.889000 	 3.662720 
4.890000 	 3.673798 
4.891000 	 3.684876 
4.892000 	 3.694325 
4.893000 	 3.704100 
4.894000 	 3.713874 
4.895000 	 3.723975 
4.896000 	 3.733424 
4.897000 	 3.742547 
4.898000 	 3.753299 
4.899000 	 3.762748 
4.900000 	 3.772522 
4.901000 	 3.781645 
4.902000 	 3.791746 
4.903000 	 3.801521 
4.904000 	 3.809992 
4.905000 	 3.819767 
4.906000 	 3.829541 
4.907000 	 3.838013 
4.908000 	 3.847787 
4.909000 	 3.856584 
4.910000 	 3.866359 
4.911000 	 3.875482 
4.912000 	 3.884279 
4.913000 	 3.893077 
4.914000 	 3.901548 
4.915000 	 3.910997 
4.916000 	 3.919468 
4.917000 	 3.929569 
4.918000 	 3.937714 
4.919000 	 3.944882 
4.920000 	 3.954005 
4.921000 	 3.962477 
4.922000 	 3.971274 
4.923000 	 3.979419 
4.924000 	 3.987565 
4.925000 	 3.994733 
4.926000 	 4.004508 
4.927000 	 4.011676 
4.928000 	 4.021125 
4.929000 	 4.026664 
4.930000 	 4.036112 
4.931000 	 4.043606 
4.932000 	 4.051426 
4.933000 	 4.059897 
4.934000 	 4.067717 
4.935000 	 4.075863 
4.936000 	 4.082705 
4.937000 	 4.089547 
4.938000 	 4.097367 
4.939000 	 4.104861 
4.940000 	 4.112355 
4.941000 	 4.119197 
4.942000 	 4.127017 
4.943000 	 4.135162 
4.944000 	 4.141027 
4.945000 	 4.147544 
4.946000 	 4.155363 
4.947000 	 4.161880 
4.948000 	 4.169048 
4.949000 	 4.174587 
4.950000 	 4.182081 
4.951000 	 4.189575 
4.952000 	 4.195440 
4.953000 	 4.201304 
4.954000 	 4.208147 
4.955000 	 4.214663 
4.956000 	 4.220854 
4.957000 	 4.227044 
4.958000 	 4.232909 
4.959000 	 4.238774 
4.960000 	 4.244964 
4.961000 	 4.250829 
4.962000 	 4.256694 
4.963000 	 4.262559 
4.964000 	 4.268098 
4.965000 	 4.274288 
4.966000 	 4.278850 
4.967000 	 4.286018 
4.968000 	 4.289928 
4.969000 	 4.296770 
4.970000 	 4.301332 
4.971000 	 4.306545 
4.972000 	 4.310781 
4.973000 	 4.316645 
4.974000 	 4.321207 
4.975000 	 4.327397 
4.976000 	 4.330330 
4.977000 	 4.336521 
4.978000 	 4.340756 
4.979000 	 4.345969 
4.980000 	 4.349879 
4.981000 	 4.355092 
4.982000 	 4.358351 
4.983000 	 4.363238 
4.984000 	 4.368125 
4.985000 	 4.370406 
4.986000 	 4.376271 
4.987000 	 4.379855 
4.988000 	 4.382787 
4.989000 	 4.386697 
4.990000 	 4.391584 
4.991000 	 4.395494 
4.992000 	 4.398753 
4.993000 	 4.401359 
4.994000 	 4.405921 
4.995000 	 4.409830 
4.996000 	 4.411785 
4.997000 	 4.415044 
4.998000 	 4.420583 
4.999000 	 4.422863 
